Wavelength (nm)	C10 abs N
275.00	0.26282
276.00	0.26147
277.00	0.20606
278.00	0.19081
279.00	0.19173
280.00	0.19130
281.00	0.19725
282.00	0.20617
283.00	0.21869
284.00	0.23415
285.00	0.25232
286.00	0.27425
287.00	0.29885
288.00	0.32709
289.00	0.35798
290.00	0.39096
291.00	0.42432
292.00	0.45863
293.00	0.49403
294.00	0.53230
295.00	0.57544
296.00	0.62432
297.00	0.68033
298.00	0.74452
299.00	0.80925
300.00	0.87503
301.00	0.93435
302.00	0.97849
303.00	1.00000
304.00	0.99195
305.00	0.95647
306.00	0.90092
307.00	0.82383
308.00	0.74326
309.00	0.66464
310.00	0.59137
311.00	0.52728
312.00	0.47355
313.00	0.42817
314.00	0.38902
315.00	0.35385
316.00	0.32179
317.00	0.29093
318.00	0.26083
319.00	0.23214
320.00	0.20592
321.00	0.18098
322.00	0.15955
323.00	0.14039
324.00	0.12390
325.00	0.11050
326.00	0.098579
327.00	0.088543
328.00	0.080447
329.00	0.073682
330.00	0.067497
331.00	0.061979
332.00	0.056887
333.00	0.052085
334.00	0.047666
335.00	0.043668
336.00	0.040005
337.00	0.036435
338.00	0.032792
339.00	0.029815
340.00	0.026644
341.00	0.024135
342.00	0.021891
343.00	0.019816
344.00	0.017746
345.00	0.016139
346.00	0.014452
347.00	0.013096
348.00	0.012081
349.00	0.010931
350.00	0.010070
351.00	0.0091762
352.00	0.0084788
353.00	0.0078450
354.00	0.0075507
355.00	0.0070712
356.00	0.0068880
357.00	0.0065413
358.00	0.0061551
359.00	0.0058315
360.00	0.0055458
361.00	0.0052414
362.00	0.0052371
363.00	0.0051188
364.00	0.0048985
365.00	0.0046701
366.00	0.0048721
367.00	0.0047961
368.00	0.0046230
369.00	0.0047196
370.00	0.0045191
371.00	0.0044484
372.00	0.0044186
373.00	0.0043089
374.00	0.0044941
375.00	0.0045229
376.00	0.0048880
377.00	0.0048139
378.00	0.0043253
379.00	0.0040127
380.00	0.0040127
381.00	0.0040978
382.00	0.0043897
383.00	0.0046316
384.00	0.0044739
385.00	0.0041786
386.00	0.0042007
387.00	0.0044003
388.00	0.0049726
389.00	0.0049356
390.00	0.0049567
391.00	0.0049322
392.00	0.0050173
393.00	0.0049490
394.00	0.0056295
395.00	0.0056747
396.00	0.0057810
397.00	0.0057690
398.00	0.0058565
399.00	0.0061537
400.00	0.0066317
401.00	0.0068125
402.00	0.0070934
403.00	0.0074805
404.00	0.0074228
405.00	0.0074103
406.00	0.0076806
407.00	0.0081821
408.00	0.0084269
409.00	0.0086659
410.00	0.0086760
411.00	0.0086438
412.00	0.0086433
413.00	0.0090824
414.00	0.0094479
415.00	0.0097922
416.00	0.0098230
417.00	0.0099740
418.00	0.010074
419.00	0.010730
420.00	0.011283
421.00	0.011892
422.00	0.012057
423.00	0.012609
424.00	0.013101
425.00	0.013489
426.00	0.014369
427.00	0.015223
428.00	0.015910
429.00	0.016417
430.00	0.016851
431.00	0.017308
432.00	0.017739
433.00	0.018457
434.00	0.018659
435.00	0.019047
436.00	0.019075
437.00	0.018921
438.00	0.019225
439.00	0.019222
440.00	0.019176
441.00	0.019740
442.00	0.019617
443.00	0.019773
444.00	0.019985
445.00	0.020680
446.00	0.021750
447.00	0.022780
448.00	0.023921
449.00	0.025221
450.00	0.026740
451.00	0.028263
452.00	0.030005
453.00	0.032450
454.00	0.034817
455.00	0.036684
456.00	0.038408
457.00	0.040252
458.00	0.042198
459.00	0.043698
460.00	0.044758
461.00	0.045594
462.00	0.045880
463.00	0.045993
464.00	0.046439
465.00	0.046381
466.00	0.046066
467.00	0.045985
468.00	0.045196
469.00	0.043707
470.00	0.043313
471.00	0.042914
472.00	0.042903
473.00	0.043144
474.00	0.043402
475.00	0.043554
476.00	0.044183
477.00	0.045490
478.00	0.048081
479.00	0.050217
480.00	0.053279
481.00	0.055800
482.00	0.059226
483.00	0.062896
484.00	0.066498
485.00	0.071602
486.00	0.074000
487.00	0.075873
488.00	0.079531
489.00	0.081781
490.00	0.084662
491.00	0.086678
492.00	0.087788
493.00	0.088714
494.00	0.088493
495.00	0.087270
496.00	0.086428
497.00	0.085103
498.00	0.083553
499.00	0.081214
500.00	0.078366
501.00	0.075845
502.00	0.072735
503.00	0.069817
504.00	0.067505
505.00	0.065037
506.00	0.063125
507.00	0.060732
508.00	0.059215
509.00	0.058158
510.00	0.058459
511.00	0.058698
512.00	0.058614
513.00	0.059478
514.00	0.060492
515.00	0.063318
516.00	0.066135
517.00	0.068698
518.00	0.071775
519.00	0.074399
520.00	0.077184
521.00	0.080317
522.00	0.083678
523.00	0.086172
524.00	0.088447
525.00	0.090602
526.00	0.091366
527.00	0.092286
528.00	0.092958
529.00	0.092640
530.00	0.092406
531.00	0.091114
532.00	0.088624
533.00	0.085964
534.00	0.082879
535.00	0.080245
536.00	0.077131
537.00	0.073023
538.00	0.068683
539.00	0.064333
540.00	0.059984
541.00	0.056386
542.00	0.052231
543.00	0.047770
544.00	0.044057
545.00	0.039973
546.00	0.036240
547.00	0.032489
548.00	0.029564
549.00	0.026521
550.00	0.023273
551.00	0.020927
552.00	0.018190
553.00	0.015654
554.00	0.014093
555.00	0.012186
556.00	0.011060
557.00	0.0095556
558.00	0.0079412
559.00	0.0068813
560.00	0.0062792
561.00	0.0056949
562.00	0.0049721
563.00	0.0045326
564.00	0.0033308
565.00	0.0028557
566.00	0.0026402
567.00	0.0023473
568.00	0.0025243
569.00	0.0021843
570.00	0.0020227
571.00	0.0016366
572.00	0.0014644
573.00	0.0013677
574.00	0.0013802
575.00	0.0012692
576.00	0.0011460
577.00	0.00093782
578.00	0.0010835
579.00	0.00098543
580.00	0.0010614
581.00	0.00092772
582.00	0.00094022
583.00	0.00088492
584.00	0.00098687
585.00	0.00093349
586.00	0.00078633
587.00	0.00096763
588.00	0.00092580
589.00	0.00074209
590.00	0.00057858
591.00	0.00080605
592.00	0.00090031
593.00	0.00078201
594.00	0.00078682
595.00	0.00082673
596.00	0.00062331
597.00	0.00053867
598.00	0.00083491
599.00	0.0010176
600.00	0.00061850
