Wavelength (nm)	H04 ems
350.00	0.015450
351.00	0.015079
352.00	0.015337
353.00	0.014282
354.00	0.015368
355.00	0.015331
356.00	0.015846
357.00	0.014175
358.00	0.013899
359.00	0.013504
360.00	0.016521
361.00	0.016754
362.00	0.018824
363.00	0.019941
364.00	0.021882
365.00	0.025834
366.00	0.028923
367.00	0.035570
368.00	0.040032
369.00	0.047304
370.00	0.051903
371.00	0.064842
372.00	0.079021
373.00	0.097342
374.00	0.11659
375.00	0.13099
376.00	0.14084
377.00	0.15213
378.00	0.17158
379.00	0.18858
380.00	0.21253
381.00	0.23805
382.00	0.26006
383.00	0.28578
384.00	0.31209
385.00	0.33503
386.00	0.37190
387.00	0.39689
388.00	0.42495
389.00	0.45463
390.00	0.48539
391.00	0.51551
392.00	0.53714
393.00	0.57350
394.00	0.59978
395.00	0.63378
396.00	0.66026
397.00	0.68221
398.00	0.70389
399.00	0.73904
400.00	0.75637
401.00	0.77477
402.00	0.82080
403.00	0.83628
404.00	0.84513
405.00	0.87439
406.00	0.88432
407.00	0.90072
408.00	0.92153
409.00	0.93193
410.00	0.94465
411.00	0.95964
412.00	0.96359
413.00	0.97471
414.00	0.98270
415.00	0.98142
416.00	0.99320
417.00	0.98823
418.00	0.99148
419.00	0.99724
420.00	1.0000
421.00	0.99501
422.00	0.98356
423.00	0.97867
424.00	0.97770
425.00	0.96357
426.00	0.96114
427.00	0.96253
428.00	0.94574
429.00	0.94341
430.00	0.92796
431.00	0.92550
432.00	0.91931
433.00	0.90412
434.00	0.89250
435.00	0.87551
436.00	0.86846
437.00	0.85109
438.00	0.83713
439.00	0.83132
440.00	0.81343
441.00	0.79888
442.00	0.78486
443.00	0.77781
444.00	0.76105
445.00	0.74638
446.00	0.73986
447.00	0.72249
448.00	0.71490
449.00	0.70695
450.00	0.70088
451.00	0.67818
452.00	0.67576
453.00	0.66503
454.00	0.65585
455.00	0.64890
456.00	0.64611
457.00	0.63633
458.00	0.63487
459.00	0.62590
460.00	0.62672
461.00	0.61839
462.00	0.62417
463.00	0.61746
464.00	0.61673
465.00	0.62107
466.00	0.61475
467.00	0.62499
468.00	0.62977
469.00	0.62802
470.00	0.62655
471.00	0.63536
472.00	0.64570
473.00	0.64845
474.00	0.65136
475.00	0.65548
476.00	0.66549
477.00	0.66967
478.00	0.67424
479.00	0.68762
480.00	0.69305
481.00	0.70489
482.00	0.72197
483.00	0.73265
484.00	0.74081
485.00	0.74472
486.00	0.74544
487.00	0.74593
488.00	0.74493
489.00	0.74852
490.00	0.75512
491.00	0.75351
492.00	0.76189
493.00	0.76923
494.00	0.76765
495.00	0.77041
496.00	0.76996
497.00	0.76823
498.00	0.77477
499.00	0.76932
500.00	0.77289
501.00	0.77136
502.00	0.76470
503.00	0.76542
504.00	0.75627
505.00	0.75301
506.00	0.75073
507.00	0.74328
508.00	0.74096
509.00	0.74029
510.00	0.73570
511.00	0.72736
512.00	0.72084
513.00	0.71616
514.00	0.70897
515.00	0.71032
516.00	0.70281
517.00	0.69978
518.00	0.70031
519.00	0.69677
520.00	0.69504
521.00	0.68548
522.00	0.68814
523.00	0.68426
524.00	0.68308
525.00	0.68150
526.00	0.69314
527.00	0.67162
528.00	0.67167
529.00	0.66816
530.00	0.67441
531.00	0.66652
532.00	0.66036
533.00	0.65352
534.00	0.64936
535.00	0.64252
536.00	0.64029
537.00	0.62743
538.00	0.62598
539.00	0.61339
540.00	0.61175
541.00	0.60121
542.00	0.60113
543.00	0.58670
544.00	0.57939
545.00	0.57225
546.00	0.56262
547.00	0.55431
548.00	0.54681
549.00	0.53507
550.00	0.53116
551.00	0.52219
552.00	0.51716
553.00	0.50222
554.00	0.49658
555.00	0.49180
556.00	0.48526
557.00	0.48171
558.00	0.47234
559.00	0.45941
560.00	0.45441
561.00	0.45155
562.00	0.44201
563.00	0.44081
564.00	0.43975
565.00	0.42911
566.00	0.42333
567.00	0.41566
568.00	0.41487
569.00	0.40684
570.00	0.40464
571.00	0.40737
572.00	0.39562
573.00	0.38839
574.00	0.38611
575.00	0.37735
576.00	0.38111
577.00	0.37281
578.00	0.36651
579.00	0.36175
580.00	0.35823
581.00	0.35131
582.00	0.34701
583.00	0.34216
584.00	0.33663
585.00	0.33109
586.00	0.32448
587.00	0.32361
588.00	0.31414
589.00	0.30958
590.00	0.30868
591.00	0.29750
592.00	0.29287
593.00	0.28910
594.00	0.28360
595.00	0.27630
596.00	0.27264
597.00	0.26309
598.00	0.25893
599.00	0.25654
600.00	0.25292
601.00	0.24960
602.00	0.23895
603.00	0.23543
604.00	0.22960
605.00	0.22454
606.00	0.22252
607.00	0.21677
608.00	0.21306
609.00	0.20833
610.00	0.20265
611.00	0.20256
612.00	0.19843
613.00	0.19709
614.00	0.18920
615.00	0.18596
616.00	0.18497
617.00	0.17822
618.00	0.18185
619.00	0.17282
620.00	0.17236
621.00	0.16840
622.00	0.16535
623.00	0.16265
624.00	0.16470
625.00	0.15676
626.00	0.15377
627.00	0.15281
628.00	0.15203
629.00	0.14821
630.00	0.14469
631.00	0.13874
632.00	0.14053
633.00	0.13553
634.00	0.13589
635.00	0.13573
636.00	0.13206
637.00	0.13252
638.00	0.12440
639.00	0.12959
640.00	0.12248
641.00	0.12437
642.00	0.12195
643.00	0.12330
644.00	0.11766
645.00	0.11502
646.00	0.11808
647.00	0.11364
648.00	0.10964
649.00	0.11076
650.00	0.10576
651.00	0.10361
652.00	0.10127
653.00	0.10162
654.00	0.10176
655.00	0.097230
656.00	0.097214
657.00	0.093634
658.00	0.092679
659.00	0.094305
660.00	0.091768
