Wavelength (nm)	I04 ems
430.00	0.00083515
430.50	0.00084561
431.00	0.00088395
431.50	0.00094371
432.00	0.00099868
432.50	0.0010681
433.00	0.0011380
433.50	0.0012701
434.00	0.0013203
434.50	0.0014144
435.00	0.0015090
435.50	0.0015988
436.00	0.0016698
436.50	0.0017578
437.00	0.0018700
437.50	0.0020397
438.00	0.0021055
438.50	0.0023430
439.00	0.0024522
439.50	0.0026618
440.00	0.0027466
440.50	0.0029344
441.00	0.0030865
441.50	0.0033578
442.00	0.0035291
442.50	0.0038829
443.00	0.0041204
443.50	0.0046816
444.00	0.0048565
444.50	0.0054402
445.00	0.0058331
445.50	0.0065448
446.00	0.0069232
446.50	0.0077249
447.00	0.0081949
447.50	0.0089596
448.00	0.0094608
448.50	0.010541
449.00	0.011223
449.50	0.012731
450.00	0.013611
450.50	0.015076
451.00	0.016359
451.50	0.018524
452.00	0.019986
452.50	0.022222
453.00	0.024147
453.50	0.027643
454.00	0.029062
454.50	0.032946
455.00	0.036157
455.50	0.041013
456.00	0.043560
456.50	0.048821
457.00	0.053165
457.50	0.059480
458.00	0.063896
458.50	0.071223
459.00	0.077250
459.50	0.086783
460.00	0.092047
460.50	0.10041
461.00	0.10908
461.50	0.12097
462.00	0.12763
462.50	0.13895
463.00	0.15036
463.50	0.16478
464.00	0.17374
464.50	0.18870
465.00	0.20163
465.50	0.22063
466.00	0.23157
466.50	0.24943
467.00	0.26316
467.50	0.28768
468.00	0.29928
468.50	0.32167
469.00	0.33640
469.50	0.36255
470.00	0.37690
470.50	0.40192
471.00	0.41866
471.50	0.44742
472.00	0.46183
472.50	0.48922
473.00	0.50792
473.50	0.53692
474.00	0.55456
474.50	0.58073
475.00	0.60077
475.50	0.62991
476.00	0.64741
476.50	0.67231
477.00	0.69119
477.50	0.71894
478.00	0.73072
478.50	0.75558
479.00	0.77204
479.50	0.79586
480.00	0.80646
480.50	0.82450
481.00	0.84037
481.50	0.85907
482.00	0.86984
482.50	0.88397
483.00	0.89956
483.50	0.91269
484.00	0.91860
484.50	0.93285
485.00	0.94042
485.50	0.95050
486.00	0.95759
486.50	0.96445
487.00	0.96956
487.50	0.97739
488.00	0.98092
488.50	0.98636
489.00	0.98892
489.50	0.99287
490.00	0.99415
490.50	0.99698
491.00	0.99857
491.50	0.99997
492.00	1.0000
492.50	0.99980
493.00	0.99939
493.50	0.99845
494.00	0.99823
494.50	0.99528
495.00	0.99524
495.50	0.98894
496.00	0.98843
496.50	0.98299
497.00	0.98082
497.50	0.97490
498.00	0.97209
498.50	0.96470
499.00	0.96166
499.50	0.95434
500.00	0.94892
500.50	0.94263
501.00	0.93583
501.50	0.92780
502.00	0.92503
502.50	0.91741
503.00	0.90961
503.50	0.90035
504.00	0.89632
504.50	0.88739
505.00	0.88176
505.50	0.87227
506.00	0.86774
506.50	0.85862
507.00	0.85039
507.50	0.84155
508.00	0.83609
508.50	0.82756
509.00	0.82193
509.50	0.81357
510.00	0.80895
510.50	0.80185
511.00	0.79377
511.50	0.78628
512.00	0.78294
512.50	0.77529
513.00	0.77094
513.50	0.75980
514.00	0.75728
514.50	0.74857
515.00	0.74484
515.50	0.73425
516.00	0.73067
516.50	0.72214
517.00	0.71842
517.50	0.70954
518.00	0.70627
518.50	0.69952
519.00	0.69296
519.50	0.68576
520.00	0.68200
520.50	0.67302
521.00	0.67058
521.50	0.66115
522.00	0.65804
522.50	0.64972
523.00	0.64420
523.50	0.63579
524.00	0.63071
524.50	0.62546
525.00	0.61957
525.50	0.61139
526.00	0.60708
526.50	0.59960
527.00	0.59301
527.50	0.58557
528.00	0.58151
528.50	0.57343
529.00	0.56828
529.50	0.56036
530.00	0.55664
530.50	0.54841
531.00	0.54254
531.50	0.53384
532.00	0.53145
532.50	0.52344
533.00	0.51958
533.50	0.51111
534.00	0.50804
534.50	0.50120
535.00	0.49539
535.50	0.48825
536.00	0.48411
536.50	0.47837
537.00	0.47365
537.50	0.46613
538.00	0.46298
538.50	0.45584
539.00	0.45171
539.50	0.44401
540.00	0.44141
540.50	0.43410
541.00	0.42953
541.50	0.42203
542.00	0.41937
542.50	0.41310
543.00	0.40800
543.50	0.40140
544.00	0.39845
544.50	0.39165
545.00	0.38760
545.50	0.38117
546.00	0.37726
546.50	0.37130
547.00	0.36772
547.50	0.36095
548.00	0.35844
548.50	0.35221
549.00	0.34897
549.50	0.34207
550.00	0.33824
550.50	0.33385
551.00	0.32858
551.50	0.32373
552.00	0.32052
552.50	0.31521
553.00	0.31077
553.50	0.30527
554.00	0.30258
554.50	0.29737
555.00	0.29393
555.50	0.28842
556.00	0.28592
556.50	0.28116
557.00	0.27815
557.50	0.27372
558.00	0.27132
558.50	0.26672
559.00	0.26431
559.50	0.25982
560.00	0.25716
560.50	0.25347
561.00	0.25069
561.50	0.24699
562.00	0.24363
562.50	0.24089
563.00	0.23722
563.50	0.23333
564.00	0.23132
564.50	0.22758
565.00	0.22534
565.50	0.22152
566.00	0.21979
566.50	0.21643
567.00	0.21411
567.50	0.21011
568.00	0.20818
568.50	0.20547
569.00	0.20296
569.50	0.19962
570.00	0.19739
570.50	0.19433
571.00	0.19285
571.50	0.18961
572.00	0.18744
572.50	0.18451
573.00	0.18209
573.50	0.17928
574.00	0.17799
574.50	0.17485
575.00	0.17282
575.50	0.16976
576.00	0.16756
576.50	0.16540
577.00	0.16272
577.50	0.16057
578.00	0.15853
578.50	0.15569
579.00	0.15368
579.50	0.15161
580.00	0.15061
580.50	0.14785
581.00	0.14613
581.50	0.14393
582.00	0.14227
582.50	0.14071
583.00	0.13932
583.50	0.13587
584.00	0.13491
584.50	0.13229
585.00	0.13153
585.50	0.12890
586.00	0.12740
586.50	0.12573
587.00	0.12399
587.50	0.12149
588.00	0.12045
588.50	0.11871
589.00	0.11735
589.50	0.11499
590.00	0.11460
590.50	0.11204
591.00	0.11118
591.50	0.10938
592.00	0.10818
592.50	0.10591
593.00	0.10539
593.50	0.10277
594.00	0.10219
594.50	0.10041
595.00	0.099029
595.50	0.097983
596.00	0.095996
596.50	0.094862
597.00	0.093973
597.50	0.092170
598.00	0.091851
598.50	0.090140
599.00	0.088632
599.50	0.086729
600.00	0.086064
600.50	0.084688
601.00	0.083972
601.50	0.082030
602.00	0.080729
602.50	0.080204
603.00	0.078978
603.50	0.077679
604.00	0.077201
604.50	0.075812
605.00	0.074674
605.50	0.073959
606.00	0.072735
606.50	0.071985
607.00	0.071073
607.50	0.069863
608.00	0.069108
608.50	0.068247
609.00	0.067555
609.50	0.066651
610.00	0.065726
610.50	0.064857
611.00	0.063821
611.50	0.062843
612.00	0.062377
612.50	0.061442
613.00	0.060860
613.50	0.059673
614.00	0.058967
614.50	0.058240
615.00	0.057637
615.50	0.056774
616.00	0.056418
616.50	0.055675
617.00	0.054824
617.50	0.053683
618.00	0.053728
618.50	0.052887
619.00	0.052237
619.50	0.051305
620.00	0.051063
620.50	0.050422
621.00	0.050247
621.50	0.048820
622.00	0.048869
622.50	0.048166
623.00	0.047043
623.50	0.046678
624.00	0.046183
624.50	0.045806
625.00	0.044480
625.50	0.043960
626.00	0.044039
626.50	0.042808
627.00	0.042147
627.50	0.041366
628.00	0.041215
628.50	0.040971
629.00	0.040452
629.50	0.039934
630.00	0.039346
630.50	0.038861
631.00	0.038432
631.50	0.037843
632.00	0.037566
632.50	0.037333
633.00	0.036577
633.50	0.036080
634.00	0.035856
634.50	0.035168
635.00	0.035112
635.50	0.034627
636.00	0.033931
636.50	0.033663
637.00	0.032875
637.50	0.032426
638.00	0.032580
638.50	0.031413
639.00	0.031323
639.50	0.030998
640.00	0.030673
640.50	0.030402
641.00	0.029893
641.50	0.029157
642.00	0.029343
642.50	0.028654
643.00	0.028506
643.50	0.027630
644.00	0.027771
644.50	0.027396
645.00	0.027207
645.50	0.026595
646.00	0.026499
646.50	0.026209
647.00	0.025620
647.50	0.025237
648.00	0.025018
648.50	0.024671
649.00	0.024481
649.50	0.023998
650.00	0.023922
650.50	0.023797
651.00	0.023106
651.50	0.022558
652.00	0.022480
652.50	0.022406
653.00	0.021893
653.50	0.021664
654.00	0.021554
654.50	0.021283
655.00	0.020958
655.50	0.020742
656.00	0.020330
656.50	0.020174
657.00	0.020124
657.50	0.019785
658.00	0.019647
658.50	0.019509
659.00	0.018830
659.50	0.018713
660.00	0.018527
660.50	0.018170
661.00	0.018139
661.50	0.017874
662.00	0.017592
662.50	0.017252
663.00	0.017284
663.50	0.017021
664.00	0.017098
664.50	0.016597
665.00	0.016593
665.50	0.016642
666.00	0.016354
666.50	0.016123
667.00	0.015752
667.50	0.015483
668.00	0.015528
668.50	0.015398
669.00	0.014966
669.50	0.015279
670.00	0.014933
670.50	0.014679
671.00	0.014580
671.50	0.014334
672.00	0.014265
672.50	0.014100
673.00	0.014325
673.50	0.013847
674.00	0.013698
674.50	0.013543
675.00	0.013329
675.50	0.013333
676.00	0.013037
676.50	0.012803
677.00	0.012987
677.50	0.012702
678.00	0.012838
678.50	0.012469
679.00	0.012307
679.50	0.012213
680.00	0.011844
680.50	0.012257
681.00	0.011782
681.50	0.011692
682.00	0.011791
682.50	0.011453
683.00	0.011645
683.50	0.011239
684.00	0.011269
684.50	0.011130
685.00	0.010904
685.50	0.010898
686.00	0.010861
686.50	0.010548
687.00	0.010448
687.50	0.010511
688.00	0.010544
688.50	0.010454
689.00	0.010358
689.50	0.010203
690.00	0.010183
690.50	0.0099932
691.00	0.0098891
691.50	0.0096877
692.00	0.0098080
692.50	0.0096621
693.00	0.0095343
693.50	0.0098594
694.00	0.0094051
694.50	0.0094405
695.00	0.0094544
695.50	0.0090869
696.00	0.0088252
696.50	0.0091338
697.00	0.0091173
697.50	0.0086518
698.00	0.0087856
698.50	0.0085150
699.00	0.0086220
699.50	0.0083398
700.00	0.0082902
