Wavelength (nm)	I18 ems
550.00	0.0084227
550.50	0.0087902
551.00	0.0092430
551.50	0.0094862
552.00	0.0096115
552.50	0.0099472
553.00	0.010377
553.50	0.010722
554.00	0.011071
554.50	0.011431
555.00	0.011779
555.50	0.012146
556.00	0.012515
556.50	0.012962
557.00	0.013184
557.50	0.013715
558.00	0.014368
558.50	0.014743
559.00	0.014814
559.50	0.015427
560.00	0.015850
560.50	0.016258
561.00	0.016446
561.50	0.016868
562.00	0.017332
562.50	0.017787
563.00	0.018073
563.50	0.018742
564.00	0.019068
564.50	0.019461
565.00	0.020209
565.50	0.020498
566.00	0.020706
566.50	0.021386
567.00	0.021847
567.50	0.022059
568.00	0.022720
568.50	0.022766
569.00	0.023768
569.50	0.023964
570.00	0.024583
570.50	0.024941
571.00	0.025842
571.50	0.026070
572.00	0.026925
572.50	0.027465
573.00	0.028043
573.50	0.028252
574.00	0.028768
574.50	0.029521
575.00	0.030134
575.50	0.030874
576.00	0.031274
576.50	0.032325
577.00	0.033183
577.50	0.033380
578.00	0.034392
578.50	0.035159
579.00	0.036462
579.50	0.037045
580.00	0.037950
580.50	0.038840
581.00	0.040239
581.50	0.040911
582.00	0.042276
582.50	0.043644
583.00	0.044659
583.50	0.045427
584.00	0.047140
584.50	0.049195
585.00	0.050646
585.50	0.051544
586.00	0.053526
586.50	0.055560
587.00	0.057489
587.50	0.059902
588.00	0.061632
588.50	0.064100
589.00	0.066867
589.50	0.069231
590.00	0.071790
590.50	0.074840
591.00	0.078694
591.50	0.081638
592.00	0.085462
592.50	0.089089
593.00	0.092992
593.50	0.096117
594.00	0.10212
594.50	0.10574
595.00	0.11174
595.50	0.11587
596.00	0.12229
596.50	0.12813
597.00	0.13498
597.50	0.13977
598.00	0.14807
598.50	0.15619
599.00	0.16391
599.50	0.17180
600.00	0.18036
600.50	0.19203
601.00	0.20200
601.50	0.21186
602.00	0.22513
602.50	0.23802
603.00	0.25299
603.50	0.26487
604.00	0.28077
604.50	0.29680
605.00	0.31277
605.50	0.32693
606.00	0.34608
606.50	0.36618
607.00	0.38399
607.50	0.40192
608.00	0.42142
608.50	0.44494
609.00	0.46834
609.50	0.48961
610.00	0.51212
610.50	0.53709
611.00	0.56457
611.50	0.58750
612.00	0.61406
612.50	0.64258
613.00	0.67019
613.50	0.69495
614.00	0.71946
614.50	0.74767
615.00	0.77466
615.50	0.79872
616.00	0.82043
616.50	0.84710
617.00	0.86811
617.50	0.88799
618.00	0.91042
618.50	0.92660
619.00	0.94162
619.50	0.95688
620.00	0.96904
620.50	0.97710
621.00	0.98715
621.50	0.99351
622.00	1.0000
622.50	0.99941
623.00	0.99619
623.50	0.99489
624.00	0.99114
624.50	0.98070
625.00	0.96855
625.50	0.95903
626.00	0.94691
626.50	0.92779
627.00	0.90918
627.50	0.89714
628.00	0.87672
628.50	0.85902
629.00	0.84316
629.50	0.83230
630.00	0.81827
630.50	0.80445
631.00	0.79004
631.50	0.78004
632.00	0.77045
632.50	0.75777
633.00	0.74848
633.50	0.73938
634.00	0.73210
634.50	0.72435
635.00	0.71539
635.50	0.70582
636.00	0.70362
636.50	0.69276
637.00	0.69041
637.50	0.68371
638.00	0.67936
638.50	0.67247
639.00	0.66757
639.50	0.66270
640.00	0.65864
640.50	0.65318
641.00	0.65006
641.50	0.64401
642.00	0.63838
642.50	0.63625
643.00	0.62773
643.50	0.62274
644.00	0.61636
644.50	0.60919
645.00	0.60392
645.50	0.59477
646.00	0.58628
646.50	0.58029
647.00	0.57098
647.50	0.56265
648.00	0.55577
648.50	0.54383
649.00	0.53540
649.50	0.52587
650.00	0.51700
650.50	0.50366
651.00	0.49587
651.50	0.48722
652.00	0.47555
652.50	0.46567
653.00	0.45796
653.50	0.44925
654.00	0.43855
654.50	0.43227
655.00	0.42215
655.50	0.41767
656.00	0.40963
656.50	0.40161
657.00	0.39417
657.50	0.38901
658.00	0.38139
658.50	0.37648
659.00	0.36938
659.50	0.36268
660.00	0.35897
660.50	0.35127
661.00	0.34888
661.50	0.34143
662.00	0.33902
662.50	0.33287
663.00	0.33026
663.50	0.32617
664.00	0.32288
664.50	0.31914
665.00	0.31832
665.50	0.31447
666.00	0.31096
666.50	0.30794
667.00	0.30681
667.50	0.30335
668.00	0.30099
668.50	0.30031
669.00	0.29659
669.50	0.29693
670.00	0.29178
670.50	0.29037
671.00	0.28745
671.50	0.28804
672.00	0.28592
672.50	0.28346
673.00	0.28167
673.50	0.28094
674.00	0.27852
674.50	0.27649
675.00	0.27412
675.50	0.27275
676.00	0.26924
676.50	0.26877
677.00	0.26774
677.50	0.26554
678.00	0.26393
678.50	0.26013
679.00	0.25960
679.50	0.25780
680.00	0.25672
680.50	0.25550
681.00	0.25037
681.50	0.25019
682.00	0.24867
682.50	0.24839
683.00	0.24465
683.50	0.24079
684.00	0.23822
684.50	0.23808
685.00	0.23363
685.50	0.23200
686.00	0.23137
686.50	0.22723
687.00	0.22477
687.50	0.22241
688.00	0.22094
688.50	0.21855
689.00	0.21598
689.50	0.21302
690.00	0.21080
690.50	0.20551
691.00	0.20250
691.50	0.20184
692.00	0.19878
692.50	0.19597
693.00	0.19287
693.50	0.19206
694.00	0.19000
694.50	0.18599
695.00	0.18203
695.50	0.17927
696.00	0.17660
696.50	0.17525
697.00	0.17266
697.50	0.16810
698.00	0.16704
698.50	0.16342
699.00	0.16105
699.50	0.15892
700.00	0.15497
700.50	0.15295
701.00	0.15036
701.50	0.15064
702.00	0.14703
702.50	0.14509
703.00	0.14289
703.50	0.14108
704.00	0.13951
704.50	0.13656
705.00	0.13438
705.50	0.13310
706.00	0.13132
706.50	0.13141
707.00	0.12808
707.50	0.12679
708.00	0.12441
708.50	0.12263
709.00	0.11961
709.50	0.11960
710.00	0.11863
710.50	0.11446
711.00	0.11544
711.50	0.11362
712.00	0.11086
712.50	0.11017
713.00	0.10809
713.50	0.10655
714.00	0.10581
714.50	0.10468
715.00	0.10363
715.50	0.10015
716.00	0.10053
716.50	0.097908
717.00	0.097798
717.50	0.095961
718.00	0.094077
718.50	0.092269
719.00	0.092384
719.50	0.089726
720.00	0.087992
720.50	0.086452
721.00	0.084858
721.50	0.084026
722.00	0.084441
722.50	0.081051
723.00	0.080357
723.50	0.078593
724.00	0.077798
724.50	0.077769
725.00	0.075033
725.50	0.073583
726.00	0.072871
726.50	0.071738
727.00	0.070085
727.50	0.069665
728.00	0.068734
728.50	0.067345
729.00	0.066855
729.50	0.065974
730.00	0.064995
730.50	0.063335
731.00	0.061881
731.50	0.062095
732.00	0.060479
732.50	0.060000
733.00	0.058272
733.50	0.057731
734.00	0.057353
734.50	0.055683
735.00	0.055302
735.50	0.054065
736.00	0.053354
736.50	0.052817
737.00	0.053368
737.50	0.051783
738.00	0.051857
738.50	0.050527
739.00	0.049433
739.50	0.048806
740.00	0.048920
740.50	0.049057
741.00	0.048821
741.50	0.047554
742.00	0.046933
742.50	0.046173
743.00	0.045619
743.50	0.045597
744.00	0.044476
744.50	0.044024
745.00	0.043512
745.50	0.043797
746.00	0.042033
746.50	0.041466
747.00	0.040468
747.50	0.041350
748.00	0.039995
748.50	0.039989
749.00	0.039182
749.50	0.039330
750.00	0.039490
750.50	0.038116
751.00	0.038384
751.50	0.038381
752.00	0.037594
752.50	0.036290
753.00	0.035824
753.50	0.035893
754.00	0.035865
754.50	0.035364
755.00	0.034722
755.50	0.035005
756.00	0.034487
756.50	0.034456
757.00	0.033519
757.50	0.032466
758.00	0.033145
758.50	0.032248
759.00	0.031927
759.50	0.031629
760.00	0.030772
760.50	0.030251
761.00	0.031265
761.50	0.030148
762.00	0.030121
762.50	0.029925
763.00	0.030297
763.50	0.029257
764.00	0.028169
764.50	0.028922
765.00	0.028508
765.50	0.026890
766.00	0.027388
766.50	0.028041
767.00	0.026963
767.50	0.026756
768.00	0.026611
768.50	0.026433
769.00	0.025370
769.50	0.025785
770.00	0.024524
770.50	0.024442
771.00	0.024433
771.50	0.024217
772.00	0.024265
772.50	0.024081
773.00	0.023251
773.50	0.022893
774.00	0.023948
774.50	0.022320
775.00	0.022272
775.50	0.022017
776.00	0.021559
776.50	0.021352
777.00	0.020875
777.50	0.020927
778.00	0.020963
778.50	0.020843
779.00	0.019382
779.50	0.019980
780.00	0.020157
780.50	0.019616
781.00	0.019220
781.50	0.020335
782.00	0.019665
782.50	0.018040
783.00	0.018604
783.50	0.017906
784.00	0.017902
784.50	0.017270
785.00	0.016825
785.50	0.016361
786.00	0.016421
786.50	0.016517
787.00	0.015716
787.50	0.016370
788.00	0.015892
788.50	0.015040
789.00	0.015563
789.50	0.015418
790.00	0.015245
790.50	0.015334
791.00	0.014641
791.50	0.014376
792.00	0.014247
792.50	0.014107
793.00	0.013731
793.50	0.014112
794.00	0.014421
794.50	0.013357
795.00	0.013416
795.50	0.013571
796.00	0.012466
796.50	0.013130
797.00	0.013128
797.50	0.012510
798.00	0.012013
798.50	0.012300
799.00	0.011359
799.50	0.011844
800.00	0.012503
