Wavelength (nm)	K02 ems
560.00	0.026966
560.50	0.031813
561.00	0.022696
561.50	0.028159
562.00	0.036962
562.50	0.020836
563.00	0.033301
563.50	0.021593
564.00	0.034452
564.50	0.041600
565.00	0.031326
565.50	0.042524
566.00	0.037127
566.50	0.027968
567.00	0.047994
567.50	0.031618
568.00	0.041773
568.50	0.031227
569.00	0.029133
569.50	0.031145
570.00	0.050679
570.50	0.031388
571.00	0.034083
571.50	0.049365
572.00	0.037593
572.50	0.031897
573.00	0.046046
573.50	0.028877
574.00	0.032278
574.50	0.045935
575.00	0.042802
575.50	0.032332
576.00	0.043484
576.50	0.046678
577.00	0.050906
577.50	0.044349
578.00	0.055725
578.50	0.052539
579.00	0.047274
579.50	0.064631
580.00	0.056265
580.50	0.069643
581.00	0.076869
581.50	0.066358
582.00	0.064867
582.50	0.064067
583.00	0.067847
583.50	0.063150
584.00	0.072644
584.50	0.066496
585.00	0.064959
585.50	0.061246
586.00	0.080980
586.50	0.080557
587.00	0.081949
587.50	0.076044
588.00	0.070826
588.50	0.089852
589.00	0.090920
589.50	0.089770
590.00	0.10163
590.50	0.099051
591.00	0.10620
591.50	0.12357
592.00	0.13200
592.50	0.14391
593.00	0.16658
593.50	0.14275
594.00	0.20898
594.50	0.21596
595.00	0.22029
595.50	0.25035
596.00	0.25061
596.50	0.26771
597.00	0.27825
597.50	0.29164
598.00	0.31306
598.50	0.31712
599.00	0.32560
599.50	0.34739
600.00	0.33911
600.50	0.33911
601.00	0.38183
601.50	0.39100
602.00	0.38709
602.50	0.41987
603.00	0.44464
603.50	0.43796
604.00	0.44668
604.50	0.49920
605.00	0.51416
605.50	0.55154
606.00	0.50821
606.50	0.57032
607.00	0.60157
607.50	0.63656
608.00	0.67578
608.50	0.65326
609.00	0.66433
609.50	0.71078
610.00	0.71596
610.50	0.73229
611.00	0.75189
611.50	0.81087
612.00	0.79612
612.50	0.78892
613.00	0.83013
613.50	0.83353
614.00	0.81102
614.50	0.85983
615.00	0.87312
615.50	0.87075
616.00	0.88343
616.50	0.83103
617.00	0.90235
617.50	0.93979
618.00	0.92679
618.50	0.92381
619.00	0.96673
619.50	0.96037
620.00	0.95586
620.50	0.97285
621.00	0.99501
621.50	0.93240
622.00	0.95846
622.50	0.99762
623.00	0.92201
623.50	0.94515
624.00	0.94127
624.50	1.0000
625.00	0.88366
625.50	0.93084
626.00	0.88218
626.50	0.90434
627.00	0.88743
627.50	0.91416
628.00	0.84883
628.50	0.87273
629.00	0.83861
629.50	0.84569
630.00	0.79550
630.50	0.78660
631.00	0.83835
631.50	0.80241
632.00	0.79734
632.50	0.76654
633.00	0.81325
633.50	0.78507
634.00	0.76425
634.50	0.76874
635.00	0.77623
635.50	0.76661
636.00	0.70874
636.50	0.71990
637.00	0.72506
637.50	0.68944
638.00	0.70915
638.50	0.64432
639.00	0.68430
639.50	0.70230
640.00	0.72166
640.50	0.67902
641.00	0.66979
641.50	0.67930
642.00	0.64979
642.50	0.63585
643.00	0.65417
643.50	0.63691
644.00	0.64318
644.50	0.61222
645.00	0.60036
645.50	0.61909
646.00	0.63470
646.50	0.64324
647.00	0.64725
647.50	0.65982
648.00	0.58852
648.50	0.62679
649.00	0.64737
649.50	0.58979
650.00	0.65805
650.50	0.60860
651.00	0.61359
651.50	0.64179
652.00	0.60788
652.50	0.64453
653.00	0.66767
653.50	0.64651
654.00	0.65725
654.50	0.63508
655.00	0.66202
655.50	0.62622
656.00	0.62349
656.50	0.63429
657.00	0.59201
657.50	0.61930
658.00	0.59898
658.50	0.59447
659.00	0.58622
659.50	0.62346
660.00	0.59307
660.50	0.59746
661.00	0.59440
661.50	0.50288
662.00	0.56779
662.50	0.56673
663.00	0.59603
663.50	0.57137
664.00	0.51653
664.50	0.56753
665.00	0.57561
665.50	0.52283
666.00	0.59631
666.50	0.51146
667.00	0.51830
667.50	0.51802
668.00	0.51850
668.50	0.57132
669.00	0.53478
669.50	0.56215
670.00	0.52099
670.50	0.54639
671.00	0.56624
671.50	0.51710
672.00	0.51430
672.50	0.56880
673.00	0.51443
673.50	0.50207
674.00	0.52473
674.50	0.54416
675.00	0.49430
675.50	0.52081
676.00	0.50190
676.50	0.47920
677.00	0.48821
677.50	0.50712
678.00	0.52531
678.50	0.53555
679.00	0.45855
679.50	0.52150
680.00	0.46740
680.50	0.44162
681.00	0.43503
681.50	0.45738
682.00	0.48279
682.50	0.46865
683.00	0.39229
683.50	0.41863
684.00	0.45974
684.50	0.45372
685.00	0.41438
685.50	0.44657
686.00	0.45637
686.50	0.41448
687.00	0.40709
687.50	0.36630
688.00	0.37773
688.50	0.38519
689.00	0.37525
689.50	0.31760
690.00	0.35179
690.50	0.31954
691.00	0.37641
691.50	0.38414
692.00	0.35885
692.50	0.37510
693.00	0.38396
693.50	0.34395
694.00	0.36143
694.50	0.34935
695.00	0.34265
695.50	0.33937
696.00	0.38431
696.50	0.38233
697.00	0.34502
697.50	0.30261
698.00	0.32072
698.50	0.31815
699.00	0.29800
699.50	0.29638
700.00	0.24740
700.50	0.19914
701.00	0.31331
701.50	0.23942
702.00	0.26664
702.50	0.28441
703.00	0.35668
703.50	0.24860
704.00	0.31031
704.50	0.29352
705.00	0.26128
705.50	0.23883
706.00	0.24430
706.50	0.27569
707.00	0.24500
707.50	0.26104
708.00	0.19813
708.50	0.23794
709.00	0.23014
709.50	0.27602
710.00	0.33601
710.50	0.24969
711.00	0.21432
711.50	0.19366
712.00	0.20885
712.50	0.24242
713.00	0.21442
713.50	0.22290
714.00	0.27430
714.50	0.22148
715.00	0.23301
715.50	0.17339
716.00	0.19497
716.50	0.17556
717.00	0.20925
717.50	0.20607
718.00	0.24033
718.50	0.23425
719.00	0.20529
719.50	0.19278
720.00	0.20776
720.50	0.20146
721.00	0.17947
721.50	0.21206
722.00	0.18507
722.50	0.16724
723.00	0.18116
723.50	0.18881
724.00	0.18843
724.50	0.28923
725.00	0.15968
725.50	0.17075
726.00	0.15529
726.50	0.23524
727.00	0.16423
727.50	0.19939
728.00	0.20248
728.50	0.11590
729.00	0.25039
729.50	0.14194
730.00	0.21153
730.50	0.22718
731.00	0.14846
731.50	0.20339
732.00	0.10528
732.50	0.16064
733.00	0.17273
733.50	0.18127
734.00	0.11558
734.50	0.11822
735.00	0.17925
735.50	0.14438
736.00	0.10525
736.50	0.15387
737.00	0.30925
737.50	0.17714
738.00	0.10592
738.50	0.037749
739.00	0.22193
739.50	0.14367
740.00	0.13252
740.50	0.20987
741.00	0.17265
741.50	0.10642
742.00	0.098858
742.50	0.093261
743.00	0.13533
743.50	0.11316
744.00	0.24405
744.50	0.14830
745.00	0.15341
745.50	0.038900
746.00	0.077825
746.50	0.045843
747.00	0.15268
747.50	0.14043
748.00	0.10164
748.50	0.15753
749.00	0.14952
749.50	0.11456
750.00	0.12420
750.50	0.18596
