Wavelength (nm)	K18 abs N	K18 abs e
220.00	0.21753	9136.1
221.00	0.21081	8854.0
222.00	0.20504	8611.8
223.00	0.19994	8397.5
224.00	0.19531	8203.0
225.00	0.19098	8021.1
226.00	0.18677	7844.2
227.00	0.18253	7666.1
228.00	0.17856	7499.7
229.00	0.17483	7342.7
230.00	0.17146	7201.4
231.00	0.16841	7073.1
232.00	0.16552	6951.8
233.00	0.16292	6842.7
234.00	0.16070	6749.4
235.00	0.15865	6663.3
236.00	0.15665	6579.5
237.00	0.15461	6493.7
238.00	0.15238	6399.8
239.00	0.14985	6293.9
240.00	0.14727	6185.4
241.00	0.14476	6080.1
242.00	0.14233	5978.0
243.00	0.14013	5885.3
244.00	0.13792	5792.6
245.00	0.13568	5698.7
246.00	0.13348	5606.0
247.00	0.13122	5511.4
248.00	0.12941	5435.1
249.00	0.12811	5380.6
250.00	0.12767	5362.3
251.00	0.12806	5378.7
252.00	0.12960	5443.0
253.00	0.13177	5534.4
254.00	0.13501	5670.6
255.00	0.13913	5843.4
256.00	0.14407	6051.1
257.00	0.14968	6286.6
258.00	0.15577	6542.3
259.00	0.16223	6813.7
260.00	0.16893	7095.2
261.00	0.17578	7382.7
262.00	0.18277	7676.2
263.00	0.18969	7966.9
264.00	0.19648	8252.2
265.00	0.20312	8531.1
266.00	0.20963	8804.5
267.00	0.21606	9074.6
268.00	0.22223	9333.8
269.00	0.22800	9575.9
270.00	0.23302	9786.8
271.00	0.23749	9974.6
272.00	0.24109	10126
273.00	0.24383	10241
274.00	0.24605	10334
275.00	0.24757	10398
276.00	0.24877	10448
277.00	0.25002	10501
278.00	0.25126	10553
279.00	0.25286	10620
280.00	0.25432	10681
281.00	0.25616	10759
282.00	0.25813	10842
283.00	0.26032	10934
284.00	0.26226	11015
285.00	0.26421	11097
286.00	0.26532	11144
287.00	0.26594	11169
288.00	0.26647	11192
289.00	0.26618	11180
290.00	0.26527	11141
291.00	0.26404	11090
292.00	0.26219	11012
293.00	0.26001	10920
294.00	0.25777	10826
295.00	0.25530	10722
296.00	0.25277	10616
297.00	0.25018	10507
298.00	0.24745	10393
299.00	0.24464	10275
300.00	0.24166	10150
301.00	0.23859	10021
302.00	0.23481	9862.1
303.00	0.23094	9699.4
304.00	0.22705	9536.1
305.00	0.22281	9358.0
306.00	0.21825	9166.4
307.00	0.21383	8980.7
308.00	0.20958	8802.6
309.00	0.20591	8648.4
310.00	0.20274	8515.1
311.00	0.20007	8402.8
312.00	0.19810	8320.2
313.00	0.19682	8266.3
314.00	0.19629	8244.3
315.00	0.19607	8235.1
316.00	0.19624	8242.1
317.00	0.19680	8265.7
318.00	0.19744	8292.5
319.00	0.19820	8324.3
320.00	0.19923	8367.5
321.00	0.20029	8412.3
322.00	0.20143	8460.2
323.00	0.20283	8518.8
324.00	0.20461	8593.6
325.00	0.20676	8684.0
326.00	0.20928	8789.6
327.00	0.21191	8900.3
328.00	0.21479	9021.3
329.00	0.21740	9130.7
330.00	0.22000	9239.8
331.00	0.22251	9345.4
332.00	0.22444	9426.4
333.00	0.22571	9480.0
334.00	0.22652	9513.8
335.00	0.22681	9526.1
336.00	0.22674	9522.9
337.00	0.22630	9504.6
338.00	0.22582	9484.4
339.00	0.22535	9464.6
340.00	0.22541	9467.1
341.00	0.22588	9487.0
342.00	0.22696	9532.4
343.00	0.22865	9603.3
344.00	0.23074	9691.2
345.00	0.23345	9805.0
346.00	0.23641	9929.2
347.00	0.23937	10053
348.00	0.24164	10149
349.00	0.24325	10216
350.00	0.24401	10248
351.00	0.24362	10232
352.00	0.24241	10181
353.00	0.24024	10090
354.00	0.23721	9963.0
355.00	0.23411	9832.8
356.00	0.23107	9704.8
357.00	0.22821	9585.0
358.00	0.22623	9501.5
359.00	0.22505	9452.0
360.00	0.22432	9421.4
361.00	0.22491	9446.3
362.00	0.22752	9556.0
363.00	0.23240	9760.6
364.00	0.23832	10010
365.00	0.24411	10253
366.00	0.24876	10448
367.00	0.25206	10587
368.00	0.25628	10764
369.00	0.25990	10916
370.00	0.26219	11012
371.00	0.26308	11049
372.00	0.26257	11028
373.00	0.26039	10936
374.00	0.25707	10797
375.00	0.25282	10618
376.00	0.24855	10439
377.00	0.24441	10265
378.00	0.24084	10115
379.00	0.23799	9995.5
380.00	0.23655	9935.2
381.00	0.23628	9923.9
382.00	0.23757	9978.1
383.00	0.23969	10067
384.00	0.24371	10236
385.00	0.24883	10451
386.00	0.25493	10707
387.00	0.26149	10982
388.00	0.26905	11300
389.00	0.27682	11627
390.00	0.28472	11958
391.00	0.29221	12273
392.00	0.29962	12584
393.00	0.30600	12852
394.00	0.31171	13092
395.00	0.31659	13297
396.00	0.32105	13484
397.00	0.32475	13640
398.00	0.32774	13765
399.00	0.33119	13910
400.00	0.33489	14065
401.00	0.33846	14215
402.00	0.34232	14377
403.00	0.34763	14601
404.00	0.35372	14856
405.00	0.36089	15158
406.00	0.36791	15452
407.00	0.37615	15798
408.00	0.38554	16193
409.00	0.39621	16641
410.00	0.40694	17092
411.00	0.41791	17552
412.00	0.42978	18051
413.00	0.44184	18557
414.00	0.45358	19051
415.00	0.46706	19616
416.00	0.48047	20180
417.00	0.49282	20698
418.00	0.50594	21249
419.00	0.51981	21832
420.00	0.53459	22453
421.00	0.54858	23040
422.00	0.56176	23594
423.00	0.57494	24147
424.00	0.58923	24748
425.00	0.60363	25352
426.00	0.61754	25937
427.00	0.63204	26546
428.00	0.64413	27053
429.00	0.65808	27639
430.00	0.67272	28254
431.00	0.68507	28773
432.00	0.69910	29362
433.00	0.71251	29926
434.00	0.72572	30480
435.00	0.73898	31037
436.00	0.75253	31606
437.00	0.76529	32142
438.00	0.77715	32640
439.00	0.78999	33179
440.00	0.80447	33788
441.00	0.81708	34317
442.00	0.82872	34806
443.00	0.84118	35329
444.00	0.85281	35818
445.00	0.86520	36338
446.00	0.87698	36833
447.00	0.88711	37259
448.00	0.89642	37650
449.00	0.90693	38091
450.00	0.91669	38501
451.00	0.92584	38885
452.00	0.93500	39270
453.00	0.94175	39554
454.00	0.95129	39954
455.00	0.95647	40172
456.00	0.96330	40458
457.00	0.97230	40837
458.00	0.97471	40938
459.00	0.97763	41061
460.00	0.98259	41269
461.00	0.98619	41420
462.00	0.99287	41701
463.00	0.99302	41707
464.00	0.99370	41735
465.00	0.99535	41805
466.00	0.99587	41827
467.00	0.99865	41943
468.00	1.0000	42000
469.00	0.99752	41896
470.00	0.99512	41795
471.00	0.99565	41817
472.00	0.99422	41757
473.00	0.99024	41590
474.00	0.98596	41410
475.00	0.97898	41117
476.00	0.97786	41070
477.00	0.97688	41029
478.00	0.96960	40723
479.00	0.96412	40493
480.00	0.95707	40197
481.00	0.94941	39875
482.00	0.94543	39708
483.00	0.93545	39289
484.00	0.92862	39002
485.00	0.91924	38608
486.00	0.90783	38129
487.00	0.90453	37990
488.00	0.89649	37653
489.00	0.87758	36858
490.00	0.86662	36398
491.00	0.85341	35843
492.00	0.84065	35307
493.00	0.82782	34768
494.00	0.81521	34239
495.00	0.79892	33555
496.00	0.78533	32984
497.00	0.77040	32357
498.00	0.75621	31761
499.00	0.73739	30970
500.00	0.72115	30288
501.00	0.70478	29601
502.00	0.68723	28864
503.00	0.67086	28176
504.00	0.65271	27414
505.00	0.63444	26646
506.00	0.61699	25914
507.00	0.59854	25139
508.00	0.58050	24381
509.00	0.56189	23600
510.00	0.54370	22835
511.00	0.52611	22097
512.00	0.50784	21329
513.00	0.49016	20587
514.00	0.47217	19831
515.00	0.45430	19081
516.00	0.43627	18323
517.00	0.41949	17618
518.00	0.40311	16931
519.00	0.38605	16214
520.00	0.36984	15533
521.00	0.35376	14858
522.00	0.33832	14209
523.00	0.32318	13573
524.00	0.30787	12931
525.00	0.29358	12330
526.00	0.27908	11721
527.00	0.26556	11153
528.00	0.25250	10605
529.00	0.23992	10076
530.00	0.22753	9556.3
531.00	0.21518	9037.7
532.00	0.20384	8561.4
533.00	0.19282	8098.3
534.00	0.18219	7651.9
535.00	0.17202	7224.8
536.00	0.16239	6820.3
537.00	0.15316	6432.6
538.00	0.14392	6044.8
539.00	0.13595	5709.7
540.00	0.12770	5363.6
541.00	0.11964	5025.0
542.00	0.11235	4718.9
543.00	0.10562	4436.1
544.00	0.099099	4162.2
545.00	0.092779	3896.7
546.00	0.086752	3643.6
547.00	0.081130	3407.5
548.00	0.075771	3182.4
549.00	0.071025	2983.0
550.00	0.066366	2787.4
551.00	0.061928	2601.0
552.00	0.057684	2422.7
553.00	0.053956	2266.2
554.00	0.050273	2111.5
555.00	0.046568	1955.9
556.00	0.043399	1822.7
557.00	0.040610	1705.6
558.00	0.037801	1587.6
559.00	0.035223	1479.3
560.00	0.032702	1373.5
561.00	0.030310	1273.0
562.00	0.028226	1185.5
563.00	0.026309	1105.0
564.00	0.024360	1023.1
565.00	0.022640	950.87
566.00	0.020960	880.32
567.00	0.019565	821.75
568.00	0.018060	758.51
569.00	0.016791	705.23
570.00	0.015633	656.59
571.00	0.014469	607.70
572.00	0.013338	560.19
573.00	0.012503	525.13
574.00	0.011650	489.29
575.00	0.010832	454.93
576.00	0.010009	420.38
577.00	0.0093462	392.54
578.00	0.0087022	365.49
579.00	0.0081093	340.59
580.00	0.0076927	323.09
581.00	0.0072844	305.94
582.00	0.0064558	271.14
583.00	0.0061413	257.93
584.00	0.0059240	248.81
585.00	0.0056026	235.31
586.00	0.0051824	217.66
587.00	0.0048831	205.09
588.00	0.0045890	192.74
589.00	0.0044329	186.18
590.00	0.0041624	174.82
591.00	0.0040514	170.16
592.00	0.0038001	159.61
593.00	0.0036713	154.20
594.00	0.0034909	146.62
595.00	0.0033370	140.15
596.00	0.0031723	133.24
597.00	0.0030378	127.59
598.00	0.0029669	124.61
599.00	0.0029333	123.20
600.00	0.0028030	117.72
601.00	0.0026477	111.20
602.00	0.0026348	110.66
603.00	0.0024880	104.50
604.00	0.0024615	103.38
605.00	0.0024422	102.57
606.00	0.0023778	99.869
607.00	0.0022318	93.735
608.00	0.0021609	90.759
609.00	0.0022268	93.524
610.00	0.0021731	91.270
611.00	0.0021852	91.780
612.00	0.0020178	84.747
613.00	0.0021437	90.037
614.00	0.0021115	88.685
615.00	0.0020751	87.152
616.00	0.0020063	84.265
617.00	0.0019698	82.733
618.00	0.0020113	84.476
619.00	0.0021237	89.195
620.00	0.0019770	83.032
621.00	0.0018288	76.809
622.00	0.0019175	80.535
623.00	0.0018624	78.222
624.00	0.0017708	74.372
625.00	0.0018753	78.764
626.00	0.0018954	79.605
627.00	0.0018202	76.447
628.00	0.0018481	77.619
629.00	0.0018495	77.679
630.00	0.0018804	78.975
631.00	0.0017193	72.210
632.00	0.0016298	68.452
633.00	0.0017272	72.541
634.00	0.0017393	73.052
635.00	0.0018073	75.908
636.00	0.0018324	76.961
637.00	0.0018073	75.908
638.00	0.0018818	79.035
639.00	0.0017537	73.654
640.00	0.0017458	73.323
641.00	0.0018016	75.668
642.00	0.0018431	77.411
643.00	0.0015746	66.135
644.00	0.0017300	72.661
645.00	0.0016827	70.675
646.00	0.0016456	69.114
647.00	0.0017808	74.795
648.00	0.0017672	74.224
649.00	0.0015718	66.015
650.00	0.0015983	67.128
651.00	0.0014959	62.828
652.00	0.0016412	68.931
653.00	0.0014959	62.828
654.00	0.0015081	63.339
655.00	0.0017179	72.150
656.00	0.0017343	72.840
657.00	0.00032628	13.704
658.00	0.00098769	41.483
659.00	0.0015303	64.272
660.00	0.0014816	62.229
661.00	0.0013105	55.042
662.00	0.0015224	63.941
663.00	0.0014837	62.317
664.00	0.0015446	64.874
665.00	0.0015482	65.025
666.00	0.0013678	57.447
667.00	0.0013843	58.141
668.00	0.0015912	66.829
669.00	0.0015933	66.917
670.00	0.0014287	60.004
671.00	0.0014344	60.243
672.00	0.0013513	56.757
673.00	0.0013764	57.810
674.00	0.0013356	56.095
675.00	0.0013785	57.898
676.00	0.0012826	53.869
677.00	0.0012955	54.411
678.00	0.0013177	55.344
679.00	0.0012232	51.375
680.00	0.0012311	51.706
681.00	0.0011395	47.857
682.00	0.0011230	47.167
683.00	0.0011130	46.744
684.00	0.0011330	47.586
685.00	0.0011244	47.227
686.00	0.0010536	44.251
687.00	0.0010399	43.677
688.00	0.0011137	46.776
689.00	0.00097628	41.004
690.00	0.0010543	44.279
691.00	0.00094618	39.740
692.00	0.00091323	38.356
693.00	0.00093042	39.078
694.00	0.00082662	34.718
695.00	0.00082737	34.749
696.00	0.00074007	31.083
697.00	0.00078226	32.855
698.00	0.00068423	28.738
699.00	0.00071215	29.910
700.00	0.00061480	25.822
