Wavelength (nm)	K18 ems
500.00	0.0010398
500.50	0.0011093
501.00	0.0011245
501.50	0.0011529
502.00	0.0011844
502.50	0.0012033
503.00	0.0012768
503.50	0.0013339
504.00	0.0013008
504.50	0.0013349
505.00	0.0014039
505.50	0.0014434
506.00	0.0014841
506.50	0.0015089
507.00	0.0014913
507.50	0.0016026
508.00	0.0016485
508.50	0.0017792
509.00	0.0017913
509.50	0.0018632
510.00	0.0019907
510.50	0.0020594
511.00	0.0021938
511.50	0.0022469
512.00	0.0024731
512.50	0.0025981
513.00	0.0026238
513.50	0.0027906
514.00	0.0028789
514.50	0.0031094
515.00	0.0032666
515.50	0.0033411
516.00	0.0035939
516.50	0.0038176
517.00	0.0039883
517.50	0.0041298
518.00	0.0044514
518.50	0.0047509
519.00	0.0048109
519.50	0.0051716
520.00	0.0053886
520.50	0.0057978
521.00	0.0059245
521.50	0.0064459
522.00	0.0065864
522.50	0.0071223
523.00	0.0073939
523.50	0.0078930
524.00	0.0081111
524.50	0.0086687
525.00	0.0090916
525.50	0.0097097
526.00	0.010086
526.50	0.010761
527.00	0.011178
527.50	0.012089
528.00	0.012315
528.50	0.012984
529.00	0.013934
529.50	0.014645
530.00	0.015181
530.50	0.016204
531.00	0.017004
531.50	0.018030
532.00	0.018493
532.50	0.019525
533.00	0.020515
533.50	0.021715
534.00	0.022436
534.50	0.023555
535.00	0.024360
535.50	0.025812
536.00	0.026867
536.50	0.028221
537.00	0.029076
537.50	0.031049
538.00	0.031834
538.50	0.033309
539.00	0.034915
539.50	0.036693
540.00	0.037460
540.50	0.039816
541.00	0.041202
541.50	0.043030
542.00	0.044513
542.50	0.046451
543.00	0.048557
543.50	0.050370
544.00	0.052230
544.50	0.054563
545.00	0.056088
545.50	0.059391
546.00	0.060946
546.50	0.063137
547.00	0.065874
547.50	0.069171
548.00	0.071010
548.50	0.074147
549.00	0.076303
549.50	0.080151
550.00	0.082216
550.50	0.085354
551.00	0.088773
551.50	0.092657
552.00	0.095954
552.50	0.099311
553.00	0.10252
553.50	0.10732
554.00	0.11030
554.50	0.11438
555.00	0.11856
555.50	0.12352
556.00	0.12641
556.50	0.13057
557.00	0.13439
557.50	0.13986
558.00	0.14283
558.50	0.14819
559.00	0.15220
559.50	0.15841
560.00	0.16134
560.50	0.16668
561.00	0.17095
561.50	0.17779
562.00	0.18123
562.50	0.18684
563.00	0.19191
563.50	0.19858
564.00	0.20253
564.50	0.20837
565.00	0.21361
565.50	0.22145
566.00	0.22572
566.50	0.23219
567.00	0.23676
567.50	0.24480
568.00	0.25070
568.50	0.25645
569.00	0.26245
569.50	0.27091
570.00	0.27604
570.50	0.28337
571.00	0.28917
571.50	0.29765
572.00	0.30294
572.50	0.31025
573.00	0.31792
573.50	0.32645
574.00	0.33284
574.50	0.34007
575.00	0.34870
575.50	0.35697
576.00	0.36316
576.50	0.37283
577.00	0.38012
577.50	0.38789
578.00	0.39643
578.50	0.40486
579.00	0.41391
579.50	0.42394
580.00	0.42980
580.50	0.43755
581.00	0.44642
581.50	0.45545
582.00	0.46306
582.50	0.47144
583.00	0.47899
583.50	0.48994
584.00	0.49645
584.50	0.50519
585.00	0.51321
585.50	0.52259
586.00	0.52993
586.50	0.53971
587.00	0.54640
587.50	0.55779
588.00	0.56426
588.50	0.57377
589.00	0.58154
589.50	0.59380
590.00	0.59830
590.50	0.60722
591.00	0.61621
591.50	0.62522
592.00	0.63234
592.50	0.64019
593.00	0.64918
593.50	0.65887
594.00	0.66379
594.50	0.67609
595.00	0.68240
595.50	0.69141
596.00	0.69791
596.50	0.70656
597.00	0.71491
597.50	0.72346
598.00	0.73053
598.50	0.73831
599.00	0.74899
599.50	0.75638
600.00	0.76014
600.50	0.76994
601.00	0.77727
601.50	0.78778
602.00	0.79301
602.50	0.79950
603.00	0.80806
603.50	0.81538
604.00	0.82053
604.50	0.82800
605.00	0.83295
605.50	0.84118
606.00	0.85096
606.50	0.85666
607.00	0.86151
607.50	0.86698
608.00	0.87566
608.50	0.88021
609.00	0.88672
609.50	0.89019
610.00	0.89542
610.50	0.90250
611.00	0.90880
611.50	0.91071
612.00	0.91753
612.50	0.92404
613.00	0.92634
613.50	0.93108
614.00	0.93547
614.50	0.93982
615.00	0.94595
615.50	0.94625
616.00	0.95090
616.50	0.95367
617.00	0.95945
617.50	0.96429
618.00	0.96621
618.50	0.96956
619.00	0.97289
619.50	0.97495
620.00	0.97846
620.50	0.98114
621.00	0.98707
621.50	0.98714
622.00	0.99260
622.50	0.99436
623.00	0.99562
623.50	0.99442
624.00	0.99795
624.50	1.0000
625.00	0.99684
625.50	0.99433
626.00	0.99578
626.50	0.99450
627.00	0.99179
627.50	0.99262
628.00	0.99143
628.50	0.99544
629.00	0.99463
629.50	0.99555
630.00	0.99541
630.50	0.99519
631.00	0.99491
631.50	0.99424
632.00	0.99356
632.50	0.99557
633.00	0.99366
633.50	0.99035
634.00	0.98960
634.50	0.98893
635.00	0.98687
635.50	0.98106
636.00	0.98144
636.50	0.97970
637.00	0.97820
637.50	0.97002
638.00	0.96760
638.50	0.96734
639.00	0.96502
639.50	0.95692
640.00	0.95481
640.50	0.94874
641.00	0.94991
641.50	0.94181
642.00	0.94265
642.50	0.93904
643.00	0.93184
643.50	0.92554
644.00	0.92551
644.50	0.91787
645.00	0.91529
645.50	0.90787
646.00	0.90439
646.50	0.89913
647.00	0.89435
647.50	0.88836
648.00	0.88590
648.50	0.88065
649.00	0.87480
649.50	0.86525
650.00	0.86020
650.50	0.85523
651.00	0.84860
651.50	0.84401
652.00	0.84159
652.50	0.83607
653.00	0.82973
653.50	0.81966
654.00	0.81767
654.50	0.81255
655.00	0.80788
655.50	0.79591
656.00	0.79582
656.50	0.78969
657.00	0.78385
657.50	0.77379
658.00	0.76991
658.50	0.76318
659.00	0.75677
659.50	0.74932
660.00	0.74220
660.50	0.73725
661.00	0.73087
661.50	0.72490
662.00	0.71932
662.50	0.71102
663.00	0.70540
663.50	0.69606
664.00	0.69213
664.50	0.68478
665.00	0.68102
665.50	0.67222
666.00	0.67067
666.50	0.66077
667.00	0.65926
667.50	0.64753
668.00	0.64657
668.50	0.63849
669.00	0.63168
669.50	0.62158
670.00	0.61882
670.50	0.61208
671.00	0.60650
671.50	0.59647
672.00	0.59238
672.50	0.58670
673.00	0.57932
673.50	0.57303
674.00	0.56691
674.50	0.55821
675.00	0.55380
675.50	0.54546
676.00	0.54209
676.50	0.53495
677.00	0.52864
677.50	0.52256
678.00	0.51641
678.50	0.50881
679.00	0.50477
679.50	0.49625
680.00	0.49369
680.50	0.48638
681.00	0.48109
681.50	0.47255
682.00	0.47212
682.50	0.46394
683.00	0.46110
683.50	0.45058
684.00	0.44618
684.50	0.44260
685.00	0.43290
685.50	0.42861
686.00	0.42506
686.50	0.42031
687.00	0.41323
687.50	0.40853
688.00	0.40428
688.50	0.39660
689.00	0.39494
689.50	0.38798
690.00	0.38470
690.50	0.37875
691.00	0.37547
691.50	0.37090
692.00	0.36723
692.50	0.36097
693.00	0.35810
693.50	0.35057
694.00	0.34771
694.50	0.34318
695.00	0.33898
695.50	0.33253
696.00	0.32962
696.50	0.32329
697.00	0.32024
697.50	0.31445
698.00	0.31139
698.50	0.30598
699.00	0.30180
699.50	0.29716
700.00	0.29565
700.50	0.28937
701.00	0.28696
701.50	0.28246
702.00	0.27926
702.50	0.27392
703.00	0.27072
703.50	0.26660
704.00	0.26403
704.50	0.25869
705.00	0.25779
705.50	0.25135
706.00	0.24994
706.50	0.24776
707.00	0.24410
707.50	0.23770
708.00	0.23647
708.50	0.23311
709.00	0.22783
709.50	0.22588
710.00	0.22380
710.50	0.22027
711.00	0.21753
711.50	0.21312
712.00	0.21065
712.50	0.20860
713.00	0.20701
713.50	0.20338
714.00	0.19983
714.50	0.19739
715.00	0.19503
715.50	0.19232
716.00	0.19059
716.50	0.18647
717.00	0.18418
717.50	0.18340
718.00	0.18033
718.50	0.17541
719.00	0.17419
719.50	0.17048
720.00	0.16944
720.50	0.16749
721.00	0.16486
721.50	0.16176
722.00	0.15992
722.50	0.15714
723.00	0.15542
723.50	0.15280
724.00	0.15128
724.50	0.14847
725.00	0.14595
725.50	0.14375
726.00	0.14230
726.50	0.14154
727.00	0.13906
727.50	0.13714
728.00	0.13543
728.50	0.13393
729.00	0.13122
729.50	0.12855
730.00	0.12791
730.50	0.12700
731.00	0.12516
731.50	0.12110
732.00	0.12218
732.50	0.11880
733.00	0.11722
733.50	0.11504
734.00	0.11440
734.50	0.11403
735.00	0.11175
735.50	0.10957
736.00	0.10915
736.50	0.10810
737.00	0.10741
737.50	0.10353
738.00	0.10313
738.50	0.10340
739.00	0.10097
739.50	0.098575
740.00	0.097676
740.50	0.097082
741.00	0.094781
741.50	0.093088
742.00	0.093988
742.50	0.092542
743.00	0.090349
743.50	0.090565
744.00	0.088722
744.50	0.087259
745.00	0.085942
745.50	0.084869
746.00	0.082796
746.50	0.082739
747.00	0.081549
747.50	0.080948
748.00	0.079558
748.50	0.078584
749.00	0.077427
749.50	0.075830
750.00	0.074692
750.50	0.074450
751.00	0.073467
751.50	0.071559
752.00	0.071331
752.50	0.069846
753.00	0.069205
753.50	0.067976
754.00	0.066763
754.50	0.065718
755.00	0.064953
755.50	0.064792
756.00	0.064061
756.50	0.063932
757.00	0.061767
757.50	0.060292
758.00	0.061449
758.50	0.059754
759.00	0.057979
759.50	0.058466
760.00	0.057601
760.50	0.056874
761.00	0.056838
761.50	0.054330
762.00	0.055067
762.50	0.053024
763.00	0.054546
763.50	0.051533
764.00	0.052983
764.50	0.051972
765.00	0.050205
765.50	0.050634
766.00	0.049917
766.50	0.049071
767.00	0.048738
767.50	0.047285
768.00	0.047452
768.50	0.047148
769.00	0.046807
769.50	0.044859
770.00	0.045040
770.50	0.045060
771.00	0.044061
771.50	0.044523
772.00	0.043450
772.50	0.042142
773.00	0.042107
773.50	0.042714
774.00	0.040711
774.50	0.040783
775.00	0.039730
775.50	0.040513
776.00	0.039509
776.50	0.039424
777.00	0.038576
777.50	0.038658
778.00	0.037472
778.50	0.037281
779.00	0.036330
779.50	0.035851
780.00	0.035868
780.50	0.035293
781.00	0.035732
781.50	0.035236
782.00	0.034379
782.50	0.033780
783.00	0.033474
783.50	0.033102
784.00	0.032628
784.50	0.032459
785.00	0.031967
785.50	0.033151
786.00	0.032032
786.50	0.031241
787.00	0.030815
787.50	0.030353
788.00	0.029839
788.50	0.029469
789.00	0.029779
789.50	0.029190
790.00	0.028722
790.50	0.028760
791.00	0.026913
791.50	0.028405
792.00	0.027104
792.50	0.026740
793.00	0.026608
793.50	0.026245
794.00	0.025679
794.50	0.025637
795.00	0.025743
795.50	0.024389
796.00	0.025068
796.50	0.024327
797.00	0.024263
797.50	0.024880
798.00	0.023403
798.50	0.024200
799.00	0.024147
799.50	0.023615
800.00	0.022692
