Wavelength (nm)	L-3, 548-62-9, Crystal violet.ems
560.00	0.018137
560.50	0.016965
561.00	0.017210
561.50	0.017493
562.00	0.018513
562.50	0.022312
563.00	0.022058
563.50	0.021058
564.00	0.023225
564.50	0.022033
565.00	0.021096
565.50	0.022196
566.00	0.026451
566.50	0.023775
567.00	0.026386
567.50	0.026486
568.00	0.029395
568.50	0.026184
569.00	0.028144
569.50	0.029455
570.00	0.029448
570.50	0.030784
571.00	0.028073
571.50	0.029175
572.00	0.030761
572.50	0.032757
573.00	0.030647
573.50	0.035107
574.00	0.036980
574.50	0.033765
575.00	0.035971
575.50	0.039260
576.00	0.039091
576.50	0.038426
577.00	0.039241
577.50	0.041141
578.00	0.041763
578.50	0.042347
579.00	0.045494
579.50	0.046432
580.00	0.049364
580.50	0.049730
581.00	0.050525
581.50	0.055091
582.00	0.056855
582.50	0.057811
583.00	0.062065
583.50	0.058697
584.00	0.061020
584.50	0.064148
585.00	0.069453
585.50	0.071348
586.00	0.073256
586.50	0.077533
587.00	0.078715
587.50	0.079679
588.00	0.086046
588.50	0.090381
589.00	0.095969
589.50	0.097411
590.00	0.10475
590.50	0.11874
591.00	0.11034
591.50	0.12071
592.00	0.12323
592.50	0.13411
593.00	0.13609
593.50	0.14606
594.00	0.15026
594.50	0.15941
595.00	0.16668
595.50	0.17457
596.00	0.18664
596.50	0.20054
597.00	0.20571
597.50	0.21227
598.00	0.22083
598.50	0.22661
599.00	0.24058
599.50	0.24993
600.00	0.26428
600.50	0.27738
601.00	0.28179
601.50	0.29863
602.00	0.31506
602.50	0.33250
603.00	0.33934
603.50	0.35554
604.00	0.36844
604.50	0.37555
605.00	0.38749
605.50	0.40786
606.00	0.42973
606.50	0.44727
607.00	0.46079
607.50	0.48430
608.00	0.49024
608.50	0.49455
609.00	0.51160
609.50	0.52490
610.00	0.53748
610.50	0.56017
611.00	0.57097
611.50	0.59480
612.00	0.60862
612.50	0.61936
613.00	0.63187
613.50	0.64645
614.00	0.66098
614.50	0.67066
615.00	0.68992
615.50	0.71990
616.00	0.72064
616.50	0.72736
617.00	0.74167
617.50	0.75475
618.00	0.78390
618.50	0.76830
619.00	0.78966
619.50	0.82086
620.00	0.81460
620.50	0.82333
621.00	0.83032
621.50	0.85278
622.00	0.86290
622.50	0.86610
623.00	0.89119
623.50	0.88565
624.00	0.89113
624.50	0.90294
625.00	0.91268
625.50	0.91309
626.00	0.91937
626.50	0.91608
627.00	0.92183
627.50	0.94099
628.00	0.95096
628.50	0.95408
629.00	0.96761
629.50	0.95197
630.00	0.95465
630.50	0.97658
631.00	0.96275
631.50	0.96923
632.00	0.97359
632.50	0.99037
633.00	0.99298
633.50	0.96864
634.00	0.97868
634.50	0.98659
635.00	0.98162
635.50	0.98686
636.00	0.99780
636.50	0.98277
637.00	0.98419
637.50	0.98343
638.00	1.0000
638.50	0.98610
639.00	0.98601
639.50	0.97345
640.00	0.97326
640.50	0.96500
641.00	0.97083
641.50	0.94703
642.00	0.97189
642.50	0.96205
643.00	0.95367
643.50	0.95904
644.00	0.94605
644.50	0.95414
645.00	0.95300
645.50	0.95323
646.00	0.92925
646.50	0.94541
647.00	0.94020
647.50	0.93079
648.00	0.91721
648.50	0.93248
649.00	0.92593
649.50	0.90829
650.00	0.90714
650.50	0.92839
651.00	0.90177
651.50	0.90044
652.00	0.89746
652.50	0.91444
653.00	0.89800
653.50	0.87566
654.00	0.88940
654.50	0.88041
655.00	0.87605
655.50	0.88022
656.00	0.88648
656.50	0.86828
657.00	0.87314
657.50	0.83985
658.00	0.85282
658.50	0.84944
659.00	0.83045
659.50	0.81162
660.00	0.82800
660.50	0.79936
661.00	0.82695
661.50	0.81827
662.00	0.80568
662.50	0.81372
663.00	0.79392
663.50	0.78485
664.00	0.79054
664.50	0.78745
665.00	0.78687
665.50	0.76911
666.00	0.77945
666.50	0.76918
667.00	0.77594
667.50	0.76094
668.00	0.75977
668.50	0.75578
669.00	0.74514
669.50	0.77291
670.00	0.75391
670.50	0.74058
671.00	0.74136
671.50	0.72533
672.00	0.72995
672.50	0.73208
673.00	0.71534
673.50	0.72496
674.00	0.72148
674.50	0.72214
675.00	0.69794
675.50	0.72146
676.00	0.71330
676.50	0.69209
677.00	0.68542
677.50	0.68948
678.00	0.68197
678.50	0.68319
679.00	0.67803
679.50	0.67389
680.00	0.65499
680.50	0.66030
681.00	0.64473
681.50	0.64673
682.00	0.64535
682.50	0.65078
683.00	0.65950
683.50	0.64284
684.00	0.63198
684.50	0.64108
685.00	0.63910
685.50	0.63347
686.00	0.63148
686.50	0.62562
687.00	0.61275
687.50	0.61168
688.00	0.61913
688.50	0.61159
689.00	0.60794
689.50	0.59938
690.00	0.59833
690.50	0.59633
691.00	0.58546
691.50	0.57961
692.00	0.59249
692.50	0.59034
693.00	0.57007
693.50	0.57312
694.00	0.57724
694.50	0.56515
695.00	0.55449
695.50	0.57328
696.00	0.56552
696.50	0.57468
697.00	0.56297
697.50	0.55723
698.00	0.54614
698.50	0.54369
699.00	0.54102
699.50	0.52961
700.00	0.52586
700.50	0.52669
701.00	0.53470
701.50	0.52720
702.00	0.51597
702.50	0.50001
703.00	0.51996
703.50	0.50935
704.00	0.49825
704.50	0.50146
705.00	0.49861
705.50	0.50139
706.00	0.50385
706.50	0.48345
707.00	0.48110
707.50	0.46115
708.00	0.47925
708.50	0.49054
709.00	0.49046
709.50	0.47912
710.00	0.46310
710.50	0.46373
711.00	0.46651
711.50	0.47472
712.00	0.45842
712.50	0.44221
713.00	0.43439
713.50	0.44452
714.00	0.44407
714.50	0.46490
715.00	0.43878
715.50	0.44691
716.00	0.43103
716.50	0.41582
717.00	0.42858
717.50	0.43524
718.00	0.43293
718.50	0.41649
719.00	0.42497
719.50	0.40615
720.00	0.41669
720.50	0.40855
721.00	0.38975
721.50	0.41262
722.00	0.40940
722.50	0.39128
723.00	0.36699
723.50	0.40026
724.00	0.38718
724.50	0.38371
725.00	0.36524
725.50	0.38083
726.00	0.35306
726.50	0.35492
727.00	0.37212
727.50	0.37490
728.00	0.36172
728.50	0.39360
729.00	0.36985
729.50	0.34768
730.00	0.34352
730.50	0.37050
731.00	0.34395
731.50	0.33883
732.00	0.34181
732.50	0.34771
733.00	0.34399
733.50	0.33339
734.00	0.33812
734.50	0.34587
735.00	0.34306
735.50	0.34662
736.00	0.32844
736.50	0.33779
737.00	0.32070
737.50	0.30241
738.00	0.32057
738.50	0.31528
739.00	0.34243
739.50	0.31226
740.00	0.30823
740.50	0.29752
741.00	0.29362
741.50	0.30716
742.00	0.29618
742.50	0.29036
743.00	0.29388
743.50	0.31279
744.00	0.28319
744.50	0.30170
745.00	0.29329
745.50	0.28925
746.00	0.28434
746.50	0.26477
747.00	0.27858
747.50	0.26972
748.00	0.26991
748.50	0.28068
749.00	0.27189
749.50	0.26436
750.00	0.27246
750.50	0.23620
751.00	0.26873
751.50	0.26204
752.00	0.26457
752.50	0.28045
753.00	0.26682
753.50	0.26336
754.00	0.26071
754.50	0.24759
755.00	0.23985
755.50	0.25489
756.00	0.25390
756.50	0.24224
757.00	0.24888
757.50	0.25318
758.00	0.23287
758.50	0.24798
759.00	0.22376
759.50	0.23285
760.00	0.22699
760.50	0.22018
761.00	0.23035
761.50	0.21536
762.00	0.20960
762.50	0.21259
763.00	0.21750
763.50	0.23327
764.00	0.21080
764.50	0.22892
765.00	0.19874
765.50	0.22679
766.00	0.19927
766.50	0.22235
767.00	0.23807
767.50	0.21709
768.00	0.21824
768.50	0.21972
769.00	0.20806
769.50	0.19931
770.00	0.21432
770.50	0.20694
771.00	0.19706
771.50	0.20300
772.00	0.17833
772.50	0.19821
773.00	0.20633
773.50	0.20142
774.00	0.19823
774.50	0.19535
775.00	0.19603
775.50	0.18876
776.00	0.18613
776.50	0.20394
777.00	0.16312
777.50	0.20425
778.00	0.18675
778.50	0.17205
779.00	0.17969
779.50	0.17119
780.00	0.20694
780.50	0.17821
781.00	0.17867
781.50	0.18259
782.00	0.19272
782.50	0.18197
783.00	0.17580
783.50	0.16760
784.00	0.15972
784.50	0.17547
785.00	0.17111
785.50	0.16505
786.00	0.18938
786.50	0.16243
787.00	0.14009
787.50	0.16623
788.00	0.16651
788.50	0.14635
789.00	0.16256
789.50	0.16611
790.00	0.14982
790.50	0.14178
791.00	0.14160
791.50	0.16030
792.00	0.15133
792.50	0.14567
793.00	0.15186
793.50	0.13929
794.00	0.13734
794.50	0.15391
795.00	0.15243
795.50	0.15496
796.00	0.16669
796.50	0.13323
797.00	0.15115
797.50	0.14569
798.00	0.11427
798.50	0.11215
799.00	0.12037
799.50	0.13864
800.00	0.14160
