Wavelength (nm)	L09 abs N
200.00	0.13279
201.00	0.16270
202.00	0.15422
203.00	0.13654
204.00	0.15229
205.00	0.14054
206.00	0.15048
207.00	0.14830
208.00	0.12434
209.00	0.15288
210.00	0.16941
211.00	0.17018
212.00	0.17441
213.00	0.19170
214.00	0.23653
215.00	0.27880
216.00	0.29677
217.00	0.29208
218.00	0.27899
219.00	0.26265
220.00	0.24491
221.00	0.22709
222.00	0.20918
223.00	0.19140
224.00	0.17414
225.00	0.15888
226.00	0.14588
227.00	0.13518
228.00	0.12617
229.00	0.11839
230.00	0.11168
231.00	0.10547
232.00	0.099983
233.00	0.094692
234.00	0.089544
235.00	0.084667
236.00	0.079973
237.00	0.075326
238.00	0.071230
239.00	0.067557
240.00	0.064326
241.00	0.061488
242.00	0.059254
243.00	0.057512
244.00	0.056231
245.00	0.055445
246.00	0.055122
247.00	0.055322
248.00	0.055956
249.00	0.056944
250.00	0.058421
251.00	0.060308
252.00	0.062305
253.00	0.064840
254.00	0.067533
255.00	0.070648
256.00	0.073843
257.00	0.077499
258.00	0.081494
259.00	0.085801
260.00	0.090490
261.00	0.095532
262.00	0.10094
263.00	0.10668
264.00	0.11277
265.00	0.11923
266.00	0.12555
267.00	0.13218
268.00	0.13821
269.00	0.14399
270.00	0.14961
271.00	0.15447
272.00	0.15908
273.00	0.16297
274.00	0.16588
275.00	0.16874
276.00	0.17086
277.00	0.17248
278.00	0.17383
279.00	0.17472
280.00	0.17553
281.00	0.17630
282.00	0.17680
283.00	0.17752
284.00	0.17817
285.00	0.17888
286.00	0.17948
287.00	0.18020
288.00	0.18076
289.00	0.18135
290.00	0.18185
291.00	0.18184
292.00	0.18158
293.00	0.18123
294.00	0.18042
295.00	0.17888
296.00	0.17697
297.00	0.17427
298.00	0.17099
299.00	0.16713
300.00	0.16265
301.00	0.15779
302.00	0.15240
303.00	0.14671
304.00	0.14076
305.00	0.13423
306.00	0.12790
307.00	0.12148
308.00	0.11552
309.00	0.10959
310.00	0.10403
311.00	0.099277
312.00	0.094800
313.00	0.091260
314.00	0.087802
315.00	0.084646
316.00	0.082435
317.00	0.080515
318.00	0.079061
319.00	0.077698
320.00	0.076514
321.00	0.075906
322.00	0.075497
323.00	0.075526
324.00	0.075538
325.00	0.075771
326.00	0.076287
327.00	0.077096
328.00	0.078021
329.00	0.079055
330.00	0.080348
331.00	0.081641
332.00	0.083135
333.00	0.084560
334.00	0.086337
335.00	0.087907
336.00	0.089640
337.00	0.091559
338.00	0.093397
339.00	0.095256
340.00	0.097392
341.00	0.099496
342.00	0.10162
343.00	0.10395
344.00	0.10592
345.00	0.10819
346.00	0.11061
347.00	0.11318
348.00	0.11536
349.00	0.11811
350.00	0.12048
351.00	0.12326
352.00	0.12523
353.00	0.12740
354.00	0.12947
355.00	0.13142
356.00	0.13302
357.00	0.13395
358.00	0.13501
359.00	0.13542
360.00	0.13567
361.00	0.13577
362.00	0.13491
363.00	0.13387
364.00	0.13194
365.00	0.12979
366.00	0.12697
367.00	0.12352
368.00	0.11970
369.00	0.11563
370.00	0.11073
371.00	0.10608
372.00	0.10075
373.00	0.095544
374.00	0.089752
375.00	0.084369
376.00	0.078497
377.00	0.073050
378.00	0.067516
379.00	0.062337
380.00	0.057475
381.00	0.052752
382.00	0.048305
383.00	0.044584
384.00	0.040737
385.00	0.037286
386.00	0.034184
387.00	0.031704
388.00	0.029006
389.00	0.027013
390.00	0.025140
391.00	0.023440
392.00	0.021916
393.00	0.021038
394.00	0.019983
395.00	0.019317
396.00	0.018518
397.00	0.018335
398.00	0.017950
399.00	0.017726
400.00	0.017545
401.00	0.017462
402.00	0.017555
403.00	0.017585
404.00	0.017412
405.00	0.017520
406.00	0.017907
407.00	0.017999
408.00	0.018907
409.00	0.019094
410.00	0.019673
411.00	0.020034
412.00	0.020684
413.00	0.020892
414.00	0.021323
415.00	0.022084
416.00	0.022730
417.00	0.023683
418.00	0.024111
419.00	0.024661
420.00	0.025309
421.00	0.026240
422.00	0.026918
423.00	0.027735
424.00	0.028612
425.00	0.029582
426.00	0.030443
427.00	0.031669
428.00	0.032634
429.00	0.033555
430.00	0.035014
431.00	0.035834
432.00	0.037099
433.00	0.038746
434.00	0.039693
435.00	0.040951
436.00	0.042475
437.00	0.043640
438.00	0.045321
439.00	0.046925
440.00	0.048175
441.00	0.050107
442.00	0.051555
443.00	0.053319
444.00	0.054930
445.00	0.056537
446.00	0.058299
447.00	0.060443
448.00	0.062374
449.00	0.064146
450.00	0.066278
451.00	0.068858
452.00	0.070768
453.00	0.072918
454.00	0.075475
455.00	0.077834
456.00	0.080459
457.00	0.082920
458.00	0.085414
459.00	0.087936
460.00	0.090610
461.00	0.093744
462.00	0.096383
463.00	0.099982
464.00	0.10302
465.00	0.10577
466.00	0.10893
467.00	0.11221
468.00	0.11558
469.00	0.11919
470.00	0.12309
471.00	0.12697
472.00	0.13009
473.00	0.13492
474.00	0.13819
475.00	0.14219
476.00	0.14582
477.00	0.15024
478.00	0.15494
479.00	0.15914
480.00	0.16403
481.00	0.16826
482.00	0.17291
483.00	0.17789
484.00	0.18236
485.00	0.19004
486.00	0.19364
487.00	0.19677
488.00	0.20303
489.00	0.20971
490.00	0.21544
491.00	0.22174
492.00	0.22807
493.00	0.23484
494.00	0.24037
495.00	0.24671
496.00	0.25470
497.00	0.26106
498.00	0.26851
499.00	0.27586
500.00	0.28189
501.00	0.29167
502.00	0.29841
503.00	0.30705
504.00	0.31511
505.00	0.32380
506.00	0.33193
507.00	0.33967
508.00	0.35029
509.00	0.35889
510.00	0.36627
511.00	0.37604
512.00	0.38545
513.00	0.39487
514.00	0.40623
515.00	0.41562
516.00	0.42460
517.00	0.43515
518.00	0.44541
519.00	0.45508
520.00	0.46512
521.00	0.47409
522.00	0.48483
523.00	0.49603
524.00	0.50573
525.00	0.51496
526.00	0.52682
527.00	0.53776
528.00	0.54732
529.00	0.55990
530.00	0.57015
531.00	0.57983
532.00	0.59446
533.00	0.60609
534.00	0.61953
535.00	0.63363
536.00	0.64670
537.00	0.66108
538.00	0.67856
539.00	0.69489
540.00	0.71046
541.00	0.72631
542.00	0.74399
543.00	0.76438
544.00	0.78337
545.00	0.80208
546.00	0.81825
547.00	0.84022
548.00	0.86149
549.00	0.88227
550.00	0.89781
551.00	0.91906
552.00	0.93828
553.00	0.95354
554.00	0.96870
555.00	0.97693
556.00	0.98952
557.00	0.99742
558.00	1.00000
559.00	0.99810
560.00	0.99994
561.00	0.99088
562.00	0.97825
563.00	0.96269
564.00	0.94179
565.00	0.91189
566.00	0.88127
567.00	0.85162
568.00	0.81723
569.00	0.77599
570.00	0.73981
571.00	0.69779
572.00	0.65801
573.00	0.61495
574.00	0.57156
575.00	0.53195
576.00	0.49105
577.00	0.44919
578.00	0.41483
579.00	0.37977
580.00	0.34453
581.00	0.31194
582.00	0.28653
583.00	0.26211
584.00	0.23219
585.00	0.20984
586.00	0.19169
587.00	0.17040
588.00	0.15365
589.00	0.13945
590.00	0.12445
591.00	0.11171
592.00	0.099365
593.00	0.089121
594.00	0.080396
595.00	0.071947
596.00	0.065338
597.00	0.058400
598.00	0.051997
599.00	0.046608
600.00	0.042171
601.00	0.037647
602.00	0.033921
603.00	0.030454
604.00	0.027811
605.00	0.024887
606.00	0.022501
607.00	0.020277
608.00	0.018476
609.00	0.016668
610.00	0.015095
611.00	0.013720
612.00	0.012582
613.00	0.011294
614.00	0.010358
615.00	0.0093825
616.00	0.0085818
617.00	0.0078536
618.00	0.0072135
619.00	0.0066656
620.00	0.0061675
621.00	0.0059462
622.00	0.0054522
623.00	0.0048329
624.00	0.0045398
625.00	0.0040847
626.00	0.0038537
627.00	0.0040898
628.00	0.0035968
629.00	0.0034789
630.00	0.0033189
631.00	0.0029798
632.00	0.0029283
633.00	0.0030476
634.00	0.0030601
635.00	0.0028759
636.00	0.0025573
637.00	0.0026741
638.00	0.0025874
639.00	0.0027154
640.00	0.0023341
641.00	0.0018355
642.00	0.0019909
643.00	0.0012691
644.00	0.0013573
645.00	0.0022483
646.00	0.0015836
647.00	0.0017084
648.00	0.0015150
649.00	0.0014264
650.00	0.0021593
651.00	0.0018373
652.00	0.0010961
653.00	0.00092679
654.00	0.0013758
655.00	0.0013651
656.00	0.0011685
657.00	0.00089107
658.00	0.0011559
659.00	0.0012478
660.00	0.0012700
661.00	0.0013341
662.00	0.0012227
663.00	0.00093468
664.00	0.0013211
665.00	0.0013535
666.00	0.00062064
667.00	0.00084840
668.00	0.0011643
669.00	0.00041840
670.00	0.00082752
671.00	0.0010047
672.00	0.00099822
673.00	0.00086602
674.00	0.00080387
675.00	0.00060626
676.00	0.0010140
677.00	0.0010831
678.00	0.00084701
679.00	0.00064105
680.00	0.00080016
681.00	0.00093236
682.00	0.00063502
683.00	0.00097689
684.00	0.00084793
685.00	0.0010539
686.00	0.00098987
687.00	0.00073568
688.00	0.00074542
689.00	0.00073290
690.00	0.00054225
691.00	0.00064198
692.00	0.00063085
693.00	0.00092911
694.00	0.00094024
695.00	0.00079691
696.00	0.00047267
697.00	0.00066332
698.00	0.00068929
699.00	0.00053297
700.00	0.00038825
