Wavelength (nm)	L10 abs N
200.00	0.12620
201.00	0.15353
202.00	0.15247
203.00	0.13361
204.00	0.17188
205.00	0.12430
206.00	0.13609
207.00	0.18595
208.00	0.16455
209.00	0.15238
210.00	0.18476
211.00	0.18044
212.00	0.18034
213.00	0.21534
214.00	0.28021
215.00	0.32927
216.00	0.34751
217.00	0.34395
218.00	0.32866
219.00	0.31023
220.00	0.29030
221.00	0.27031
222.00	0.25004
223.00	0.23022
224.00	0.21109
225.00	0.19388
226.00	0.17846
227.00	0.16525
228.00	0.15371
229.00	0.14331
230.00	0.13403
231.00	0.12529
232.00	0.11768
233.00	0.11067
234.00	0.10438
235.00	0.098479
236.00	0.093118
237.00	0.088066
238.00	0.083390
239.00	0.078852
240.00	0.074442
241.00	0.070504
242.00	0.066677
243.00	0.063203
244.00	0.060164
245.00	0.057492
246.00	0.055219
247.00	0.053416
248.00	0.052311
249.00	0.051674
250.00	0.051441
251.00	0.051682
252.00	0.052379
253.00	0.053238
254.00	0.054509
255.00	0.055926
256.00	0.057887
257.00	0.059889
258.00	0.062327
259.00	0.064770
260.00	0.067721
261.00	0.071123
262.00	0.074759
263.00	0.078907
264.00	0.083403
265.00	0.088109
266.00	0.093556
267.00	0.099299
268.00	0.10516
269.00	0.11123
270.00	0.11744
271.00	0.12394
272.00	0.13045
273.00	0.13678
274.00	0.14298
275.00	0.14870
276.00	0.15419
277.00	0.15949
278.00	0.16398
279.00	0.16801
280.00	0.17213
281.00	0.17569
282.00	0.17866
283.00	0.18158
284.00	0.18426
285.00	0.18655
286.00	0.18864
287.00	0.19026
288.00	0.19177
289.00	0.19302
290.00	0.19441
291.00	0.19529
292.00	0.19595
293.00	0.19613
294.00	0.19636
295.00	0.19584
296.00	0.19499
297.00	0.19327
298.00	0.19146
299.00	0.18870
300.00	0.18524
301.00	0.18129
302.00	0.17673
303.00	0.17129
304.00	0.16521
305.00	0.15864
306.00	0.15181
307.00	0.14462
308.00	0.13716
309.00	0.13005
310.00	0.12296
311.00	0.11588
312.00	0.10953
313.00	0.10358
314.00	0.098459
315.00	0.093625
316.00	0.089462
317.00	0.085828
318.00	0.082656
319.00	0.079753
320.00	0.077354
321.00	0.075500
322.00	0.073859
323.00	0.072786
324.00	0.071503
325.00	0.070642
326.00	0.070158
327.00	0.069693
328.00	0.069454
329.00	0.069385
330.00	0.069507
331.00	0.069595
332.00	0.069921
333.00	0.070505
334.00	0.071235
335.00	0.072100
336.00	0.072970
337.00	0.073814
338.00	0.074830
339.00	0.075968
340.00	0.077193
341.00	0.078328
342.00	0.079553
343.00	0.081045
344.00	0.082494
345.00	0.083773
346.00	0.085533
347.00	0.087000
348.00	0.088604
349.00	0.090327
350.00	0.091832
351.00	0.093499
352.00	0.095462
353.00	0.097300
354.00	0.098983
355.00	0.10078
356.00	0.10254
357.00	0.10373
358.00	0.10511
359.00	0.10614
360.00	0.10765
361.00	0.10888
362.00	0.10984
363.00	0.11042
364.00	0.11047
365.00	0.11083
366.00	0.11100
367.00	0.11104
368.00	0.11090
369.00	0.10970
370.00	0.10852
371.00	0.10759
372.00	0.10583
373.00	0.10415
374.00	0.10195
375.00	0.099863
376.00	0.097124
377.00	0.094004
378.00	0.090813
379.00	0.087680
380.00	0.084390
381.00	0.080844
382.00	0.077508
383.00	0.073858
384.00	0.069848
385.00	0.065978
386.00	0.062251
387.00	0.057991
388.00	0.054702
389.00	0.051108
390.00	0.047388
391.00	0.043879
392.00	0.040867
393.00	0.038161
394.00	0.035530
395.00	0.032766
396.00	0.030499
397.00	0.028384
398.00	0.026236
399.00	0.024286
400.00	0.023093
401.00	0.021704
402.00	0.020515
403.00	0.019414
404.00	0.018429
405.00	0.017887
406.00	0.017178
407.00	0.016794
408.00	0.016565
409.00	0.016567
410.00	0.016386
411.00	0.016187
412.00	0.016498
413.00	0.016482
414.00	0.016367
415.00	0.016669
416.00	0.016888
417.00	0.017408
418.00	0.017821
419.00	0.018151
420.00	0.018636
421.00	0.019316
422.00	0.019944
423.00	0.020248
424.00	0.020802
425.00	0.021543
426.00	0.022529
427.00	0.023378
428.00	0.023959
429.00	0.024519
430.00	0.025868
431.00	0.026397
432.00	0.027486
433.00	0.028642
434.00	0.029671
435.00	0.030456
436.00	0.031707
437.00	0.032798
438.00	0.034025
439.00	0.035568
440.00	0.036409
441.00	0.037805
442.00	0.039146
443.00	0.040473
444.00	0.041792
445.00	0.043514
446.00	0.044966
447.00	0.046417
448.00	0.047949
449.00	0.049408
450.00	0.051252
451.00	0.053027
452.00	0.054637
453.00	0.056465
454.00	0.058607
455.00	0.060340
456.00	0.062315
457.00	0.064196
458.00	0.066403
459.00	0.068302
460.00	0.070598
461.00	0.072779
462.00	0.075217
463.00	0.078091
464.00	0.080166
465.00	0.082534
466.00	0.084735
467.00	0.087789
468.00	0.090460
469.00	0.092900
470.00	0.096319
471.00	0.099311
472.00	0.10184
473.00	0.10545
474.00	0.10821
475.00	0.11127
476.00	0.11485
477.00	0.11847
478.00	0.12147
479.00	0.12500
480.00	0.12911
481.00	0.13236
482.00	0.13604
483.00	0.14034
484.00	0.14426
485.00	0.14936
486.00	0.15224
487.00	0.15524
488.00	0.16025
489.00	0.16499
490.00	0.16871
491.00	0.17380
492.00	0.17884
493.00	0.18333
494.00	0.18786
495.00	0.19310
496.00	0.19850
497.00	0.20359
498.00	0.20929
499.00	0.21508
500.00	0.22018
501.00	0.22620
502.00	0.23218
503.00	0.23712
504.00	0.24404
505.00	0.25078
506.00	0.25665
507.00	0.26251
508.00	0.27024
509.00	0.27705
510.00	0.28340
511.00	0.29176
512.00	0.29916
513.00	0.30564
514.00	0.31351
515.00	0.32204
516.00	0.32974
517.00	0.33883
518.00	0.34680
519.00	0.35627
520.00	0.36399
521.00	0.37260
522.00	0.38202
523.00	0.39078
524.00	0.39767
525.00	0.40863
526.00	0.41855
527.00	0.42728
528.00	0.43691
529.00	0.44544
530.00	0.45542
531.00	0.46416
532.00	0.47427
533.00	0.48347
534.00	0.49176
535.00	0.50217
536.00	0.51030
537.00	0.52118
538.00	0.53216
539.00	0.53990
540.00	0.54838
541.00	0.55956
542.00	0.56957
543.00	0.57911
544.00	0.59021
545.00	0.59855
546.00	0.60942
547.00	0.62175
548.00	0.63356
549.00	0.64586
550.00	0.65835
551.00	0.67360
552.00	0.68767
553.00	0.70238
554.00	0.71754
555.00	0.73535
556.00	0.75320
557.00	0.77158
558.00	0.78893
559.00	0.80764
560.00	0.82581
561.00	0.84410
562.00	0.86301
563.00	0.88218
564.00	0.90072
565.00	0.91719
566.00	0.93157
567.00	0.95304
568.00	0.96734
569.00	0.97885
570.00	0.98932
571.00	0.99520
572.00	0.99773
573.00	1.0000
574.00	0.99693
575.00	0.99100
576.00	0.97996
577.00	0.96368
578.00	0.94749
579.00	0.92729
580.00	0.89940
581.00	0.86799
582.00	0.84106
583.00	0.80955
584.00	0.76601
585.00	0.72873
586.00	0.69455
587.00	0.64985
588.00	0.61039
589.00	0.57422
590.00	0.53268
591.00	0.49411
592.00	0.45462
593.00	0.41899
594.00	0.38691
595.00	0.35505
596.00	0.32724
597.00	0.29695
598.00	0.26952
599.00	0.24526
600.00	0.22294
601.00	0.20223
602.00	0.18343
603.00	0.16515
604.00	0.15052
605.00	0.13568
606.00	0.12222
607.00	0.11047
608.00	0.099429
609.00	0.090074
610.00	0.080383
611.00	0.073025
612.00	0.065599
613.00	0.058935
614.00	0.053204
615.00	0.047980
616.00	0.043317
617.00	0.039216
618.00	0.035315
619.00	0.031925
620.00	0.028501
621.00	0.026011
622.00	0.023548
623.00	0.021210
624.00	0.019327
625.00	0.017388
626.00	0.016018
627.00	0.014411
628.00	0.013250
629.00	0.011752
630.00	0.010751
631.00	0.0099448
632.00	0.0090982
633.00	0.0084720
634.00	0.0079710
635.00	0.0074811
636.00	0.0067565
637.00	0.0060208
638.00	0.0056164
639.00	0.0052398
640.00	0.0047240
641.00	0.0048284
642.00	0.0038598
643.00	0.0034097
644.00	0.0035460
645.00	0.0033501
646.00	0.0027373
647.00	0.0028634
648.00	0.0018860
649.00	0.0028015
650.00	0.0020524
651.00	0.0016226
652.00	0.0019891
653.00	0.0019452
654.00	0.0014867
655.00	0.0013360
656.00	0.0012949
657.00	0.0018453
658.00	0.0017663
659.00	0.0013832
660.00	0.0017011
661.00	0.00099314
662.00	0.00081707
663.00	0.0016762
664.00	0.0010204
665.00	0.00098991
666.00	0.0017672
667.00	0.0017270
668.00	0.00083001
669.00	0.0015745
670.00	0.0011433
671.00	0.00096079
672.00	0.00056705
673.00	0.00068536
674.00	0.0011433
675.00	0.00050697
676.00	0.0012076
677.00	0.00095848
678.00	0.00086328
679.00	0.00063175
680.00	0.00081337
681.00	0.0012187
682.00	0.00092705
683.00	0.00079812
684.00	0.00075283
685.00	0.00070985
686.00	0.0011604
687.00	0.00092059
688.00	0.0010440
689.00	0.0011392
690.00	0.00070615
691.00	0.00074682
692.00	0.00073388
693.00	0.00074081
694.00	0.0010366
695.00	0.00081429
696.00	0.00069691
697.00	0.00080644
698.00	0.00070199
699.00	0.00059431
700.00	0.00056474
