Wavelength (nm)	N12 abs N
200.00	0.44472
201.00	0.48757
202.00	0.49851
203.00	0.49972
204.00	0.49576
205.00	0.48253
206.00	0.46285
207.00	0.44052
208.00	0.41361
209.00	0.38425
210.00	0.35479
211.00	0.33192
212.00	0.31554
213.00	0.30450
214.00	0.29718
215.00	0.29271
216.00	0.29056
217.00	0.28985
218.00	0.29014
219.00	0.29073
220.00	0.29150
221.00	0.29182
222.00	0.29121
223.00	0.28944
224.00	0.28608
225.00	0.28154
226.00	0.27482
227.00	0.26719
228.00	0.25866
229.00	0.24974
230.00	0.24038
231.00	0.23143
232.00	0.22343
233.00	0.21647
234.00	0.21110
235.00	0.20781
236.00	0.20664
237.00	0.20755
238.00	0.20870
239.00	0.20807
240.00	0.20480
241.00	0.19949
242.00	0.19476
243.00	0.19199
244.00	0.19266
245.00	0.19699
246.00	0.20482
247.00	0.21572
248.00	0.22874
249.00	0.24259
250.00	0.25603
251.00	0.26881
252.00	0.28023
253.00	0.29051
254.00	0.29980
255.00	0.30725
256.00	0.31216
257.00	0.31356
258.00	0.31024
259.00	0.30081
260.00	0.28654
261.00	0.26761
262.00	0.24605
263.00	0.22450
264.00	0.20434
265.00	0.18663
266.00	0.17256
267.00	0.16208
268.00	0.15407
269.00	0.14906
270.00	0.14607
271.00	0.14503
272.00	0.14507
273.00	0.14598
274.00	0.14791
275.00	0.14990
276.00	0.15199
277.00	0.15390
278.00	0.15554
279.00	0.15658
280.00	0.15713
281.00	0.15671
282.00	0.15603
283.00	0.15501
284.00	0.15306
285.00	0.15096
286.00	0.14829
287.00	0.14583
288.00	0.14322
289.00	0.14095
290.00	0.13877
291.00	0.13724
292.00	0.13659
293.00	0.13641
294.00	0.13681
295.00	0.13790
296.00	0.13918
297.00	0.14086
298.00	0.14275
299.00	0.14469
300.00	0.14660
301.00	0.14867
302.00	0.15046
303.00	0.15165
304.00	0.15227
305.00	0.15164
306.00	0.14962
307.00	0.14620
308.00	0.14045
309.00	0.13302
310.00	0.12415
311.00	0.11347
312.00	0.10238
313.00	0.091799
314.00	0.081135
315.00	0.071438
316.00	0.063000
317.00	0.055424
318.00	0.048641
319.00	0.043229
320.00	0.038589
321.00	0.034732
322.00	0.031805
323.00	0.029336
324.00	0.027431
325.00	0.026569
326.00	0.025971
327.00	0.026102
328.00	0.026639
329.00	0.028006
330.00	0.029636
331.00	0.031591
332.00	0.034039
333.00	0.036667
334.00	0.038844
335.00	0.041218
336.00	0.043815
337.00	0.045553
338.00	0.046979
339.00	0.048405
340.00	0.049662
341.00	0.050974
342.00	0.052657
343.00	0.054687
344.00	0.057266
345.00	0.060313
346.00	0.064232
347.00	0.068291
348.00	0.072413
349.00	0.076463
350.00	0.079872
351.00	0.082235
352.00	0.083638
353.00	0.083207
354.00	0.081052
355.00	0.077579
356.00	0.072645
357.00	0.067305
358.00	0.061067
359.00	0.054818
360.00	0.048567
361.00	0.042491
362.00	0.037125
363.00	0.032548
364.00	0.028610
365.00	0.025322
366.00	0.022838
367.00	0.021142
368.00	0.019817
369.00	0.018567
370.00	0.017746
371.00	0.017212
372.00	0.017036
373.00	0.016931
374.00	0.017520
375.00	0.017129
376.00	0.017517
377.00	0.017681
378.00	0.018387
379.00	0.018632
380.00	0.018571
381.00	0.019130
382.00	0.019641
383.00	0.019684
384.00	0.020008
385.00	0.020696
386.00	0.021184
387.00	0.021982
388.00	0.022244
389.00	0.022791
390.00	0.023571
391.00	0.024011
392.00	0.024693
393.00	0.025438
394.00	0.025931
395.00	0.026162
396.00	0.026206
397.00	0.026531
398.00	0.026987
399.00	0.027167
400.00	0.027077
401.00	0.027046
402.00	0.026988
403.00	0.026580
404.00	0.026430
405.00	0.026214
406.00	0.025825
407.00	0.025273
408.00	0.025074
409.00	0.024684
410.00	0.024282
411.00	0.023675
412.00	0.023685
413.00	0.023488
414.00	0.023177
415.00	0.022802
416.00	0.022278
417.00	0.022041
418.00	0.022005
419.00	0.021864
420.00	0.021633
421.00	0.021273
422.00	0.020899
423.00	0.020801
424.00	0.020399
425.00	0.019915
426.00	0.019722
427.00	0.018863
428.00	0.018266
429.00	0.017273
430.00	0.016894
431.00	0.016137
432.00	0.015510
433.00	0.014968
434.00	0.014037
435.00	0.013327
436.00	0.012823
437.00	0.012086
438.00	0.011599
439.00	0.011553
440.00	0.010993
441.00	0.010431
442.00	0.010336
443.00	0.010398
444.00	0.010191
445.00	0.010330
446.00	0.010109
447.00	0.010303
448.00	0.010673
449.00	0.010959
450.00	0.011339
451.00	0.011554
452.00	0.012287
453.00	0.012693
454.00	0.013468
455.00	0.014013
456.00	0.014852
457.00	0.015823
458.00	0.016678
459.00	0.017874
460.00	0.019094
461.00	0.020032
462.00	0.021527
463.00	0.023150
464.00	0.024579
465.00	0.025982
466.00	0.027456
467.00	0.029481
468.00	0.031708
469.00	0.033176
470.00	0.035581
471.00	0.037763
472.00	0.040247
473.00	0.042683
474.00	0.045570
475.00	0.047676
476.00	0.050263
477.00	0.052855
478.00	0.055360
479.00	0.058107
480.00	0.061532
481.00	0.064207
482.00	0.067072
483.00	0.070529
484.00	0.073599
485.00	0.078312
486.00	0.081202
487.00	0.083698
488.00	0.088416
489.00	0.093807
490.00	0.098635
491.00	0.10438
492.00	0.11050
493.00	0.11712
494.00	0.12336
495.00	0.13076
496.00	0.13904
497.00	0.14696
498.00	0.15603
499.00	0.16643
500.00	0.17485
501.00	0.18581
502.00	0.19646
503.00	0.20694
504.00	0.21793
505.00	0.22879
506.00	0.24015
507.00	0.25121
508.00	0.26219
509.00	0.27263
510.00	0.28247
511.00	0.29150
512.00	0.30053
513.00	0.30871
514.00	0.31654
515.00	0.32424
516.00	0.32966
517.00	0.33539
518.00	0.34146
519.00	0.34758
520.00	0.35341
521.00	0.36018
522.00	0.36576
523.00	0.37280
524.00	0.38000
525.00	0.38838
526.00	0.39962
527.00	0.41093
528.00	0.42429
529.00	0.43981
530.00	0.45612
531.00	0.47369
532.00	0.49466
533.00	0.51764
534.00	0.54211
535.00	0.56835
536.00	0.59393
537.00	0.62247
538.00	0.65331
539.00	0.68355
540.00	0.71465
541.00	0.74715
542.00	0.78126
543.00	0.80902
544.00	0.84384
545.00	0.87300
546.00	0.89796
547.00	0.92253
548.00	0.94535
549.00	0.96445
550.00	0.98007
551.00	0.99310
552.00	0.99618
553.00	1.00000
554.00	0.99202
555.00	0.98196
556.00	0.96685
557.00	0.94511
558.00	0.91501
559.00	0.88098
560.00	0.84228
561.00	0.80007
562.00	0.75444
563.00	0.70561
564.00	0.65491
565.00	0.60403
566.00	0.55036
567.00	0.49856
568.00	0.44941
569.00	0.40057
570.00	0.35768
571.00	0.31557
572.00	0.27872
573.00	0.24246
574.00	0.20960
575.00	0.18274
576.00	0.15652
577.00	0.13277
578.00	0.11429
579.00	0.097843
580.00	0.081975
581.00	0.068889
582.00	0.059204
583.00	0.050965
584.00	0.041799
585.00	0.034891
586.00	0.030168
587.00	0.024969
588.00	0.021160
589.00	0.018180
590.00	0.015137
591.00	0.012883
592.00	0.010796
593.00	0.0092744
594.00	0.0080818
595.00	0.0069594
596.00	0.0059068
597.00	0.0053095
598.00	0.0045728
599.00	0.0042432
600.00	0.0035411
601.00	0.0032710
602.00	0.0028941
603.00	0.0024231
604.00	0.0021296
605.00	0.0019941
606.00	0.0017040
607.00	0.0019146
608.00	0.0016976
609.00	0.0014568
610.00	0.0011691
611.00	0.0014529
612.00	0.0010794
613.00	0.0011257
614.00	0.0011745
615.00	0.0010131
616.00	0.0010282
617.00	0.00087315
618.00	0.00087657
619.00	0.00079953
620.00	0.00087266
621.00	0.00083268
622.00	0.00083805
623.00	0.00059622
624.00	0.00070738
625.00	0.00073761
626.00	0.00062108
627.00	0.00060109
628.00	0.00075224
629.00	0.00059475
630.00	0.00062742
631.00	0.00079124
632.00	0.00093068
633.00	0.00094677
634.00	0.0011340
635.00	0.00092191
636.00	0.00076735
637.00	0.00097310
638.00	0.00075516
639.00	0.00067228
640.00	0.00057379
641.00	0.00076296
642.00	0.00017106
643.00	0.00063035
644.00	0.00073761
645.00	0.00036462
646.00	0.00021445
647.00	0.00024127
648.00	0.00019251
649.00	0.00043776
650.00	0.00051382
651.00	0.00071274
652.00	0.00081367
653.00	0.00043873
654.00	0.00038608
655.00	0.00050602
656.00	0.00075321
657.00	0.0010121
658.00	0.00090143
659.00	0.00062937
660.00	0.00046214
661.00	0.00047823
662.00	0.00043288
663.00	0.00031733
664.00	0.00070689
665.00	0.00053137
666.00	0.00069714
667.00	0.00084097
668.00	0.00052357
669.00	0.00020519
670.00	0.00052357
671.00	0.00043532
672.00	0.00034561
673.00	0.00053527
674.00	0.00042264
675.00	0.00050017
676.00	0.00048261
677.00	0.00044605
678.00	0.00062791
679.00	0.00038754
680.00	0.00040948
681.00	0.00083025
682.00	0.00054063
683.00	0.00051967
684.00	0.00079222
685.00	0.00032464
686.00	0.00049870
687.00	0.00064107
688.00	0.00051577
689.00	0.00059914
690.00	0.00042947
691.00	0.00030807
692.00	0.00032611
693.00	0.00048018
694.00	0.00040655
695.00	0.00045287
696.00	0.00043922
697.00	0.00029051
698.00	0.00048310
699.00	0.00052649
700.00	0.00049578
