Wavelength (nm)	O-2, 67769-47-5, Lucifer Yellow CH.ems
400.00	0.0013061
400.50	0.0012416
401.00	0.0012472
401.50	0.0013111
402.00	0.0012650
402.50	0.0013821
403.00	0.0015253
403.50	0.0013900
404.00	0.0014327
404.50	0.0013138
405.00	0.0013872
405.50	0.0014234
406.00	0.0013869
406.50	0.0014449
407.00	0.0014041
407.50	0.0013151
408.00	0.0012087
408.50	0.0015578
409.00	0.0012830
409.50	0.0013692
410.00	0.0013963
410.50	0.0013968
411.00	0.0014976
411.50	0.0013370
412.00	0.0014897
412.50	0.0014576
413.00	0.0015686
413.50	0.0015819
414.00	0.0015606
414.50	0.0016257
415.00	0.0017165
415.50	0.0015517
416.00	0.0016564
416.50	0.0016598
417.00	0.0016008
417.50	0.0017505
418.00	0.0017775
418.50	0.0016024
419.00	0.0016660
419.50	0.0017938
420.00	0.0017714
420.50	0.0018442
421.00	0.0019214
421.50	0.0018763
422.00	0.0018419
422.50	0.0019963
423.00	0.0020885
423.50	0.0019962
424.00	0.0021398
424.50	0.0023220
425.00	0.0022533
425.50	0.0024302
426.00	0.0026239
426.50	0.0030295
427.00	0.0031735
427.50	0.0037368
428.00	0.0041326
428.50	0.0050303
429.00	0.0056644
429.50	0.0065541
430.00	0.0072807
430.50	0.0082495
431.00	0.0088315
431.50	0.010284
432.00	0.011092
432.50	0.011838
433.00	0.012476
433.50	0.013036
434.00	0.013654
434.50	0.013636
435.00	0.013994
435.50	0.013931
436.00	0.013812
436.50	0.013643
437.00	0.012788
437.50	0.011849
438.00	0.011788
438.50	0.010205
439.00	0.0097997
439.50	0.0086341
440.00	0.0081929
440.50	0.0073438
441.00	0.0066318
441.50	0.0061425
442.00	0.0056971
442.50	0.0053023
443.00	0.0052506
443.50	0.0052414
444.00	0.0051446
444.50	0.0050284
445.00	0.0052202
445.50	0.0054033
446.00	0.0054710
446.50	0.0053566
447.00	0.0055573
447.50	0.0059214
448.00	0.0058607
448.50	0.0059762
449.00	0.0062875
449.50	0.0066207
450.00	0.0064634
450.50	0.0068879
451.00	0.0067331
451.50	0.0072404
452.00	0.0073403
452.50	0.0077191
453.00	0.0077222
453.50	0.0086491
454.00	0.0084580
454.50	0.0088320
455.00	0.0094971
455.50	0.0098865
456.00	0.010064
456.50	0.010960
457.00	0.011005
457.50	0.011633
458.00	0.012208
458.50	0.012831
459.00	0.013487
459.50	0.014371
460.00	0.015073
460.50	0.015617
461.00	0.016274
461.50	0.017745
462.00	0.018091
462.50	0.019034
463.00	0.019944
463.50	0.021868
464.00	0.022133
464.50	0.023770
465.00	0.024397
465.50	0.026551
466.00	0.027299
466.50	0.029357
467.00	0.030601
467.50	0.032151
468.00	0.033941
468.50	0.036476
469.00	0.036953
469.50	0.040214
470.00	0.041468
470.50	0.045049
471.00	0.046239
471.50	0.049887
472.00	0.051469
472.50	0.055623
473.00	0.057094
473.50	0.061740
474.00	0.063709
474.50	0.068175
475.00	0.070831
475.50	0.076871
476.00	0.079204
476.50	0.083524
477.00	0.088159
477.50	0.093307
478.00	0.096479
478.50	0.10293
479.00	0.10741
479.50	0.11438
480.00	0.11815
480.50	0.12506
481.00	0.13035
481.50	0.13759
482.00	0.14382
482.50	0.15019
483.00	0.15733
483.50	0.16530
484.00	0.17086
484.50	0.17688
485.00	0.18385
485.50	0.19395
486.00	0.20142
486.50	0.20834
487.00	0.21575
487.50	0.22671
488.00	0.23220
488.50	0.24068
489.00	0.24828
489.50	0.25856
490.00	0.26383
490.50	0.27608
491.00	0.28393
491.50	0.29465
492.00	0.30382
492.50	0.31390
493.00	0.32211
493.50	0.33504
494.00	0.34084
494.50	0.35325
495.00	0.36262
495.50	0.37570
496.00	0.38255
496.50	0.39643
497.00	0.40539
497.50	0.41787
498.00	0.42768
498.50	0.43885
499.00	0.44955
499.50	0.46478
500.00	0.47078
500.50	0.48450
501.00	0.49417
501.50	0.51135
502.00	0.51811
502.50	0.52880
503.00	0.54088
503.50	0.55605
504.00	0.56561
504.50	0.57805
505.00	0.58924
505.50	0.60345
506.00	0.61030
506.50	0.62699
507.00	0.63495
507.50	0.64677
508.00	0.65693
508.50	0.66676
509.00	0.67650
509.50	0.68596
510.00	0.69707
510.50	0.70984
511.00	0.71461
511.50	0.72554
512.00	0.73619
512.50	0.74665
513.00	0.75707
513.50	0.76656
514.00	0.77359
514.50	0.78588
515.00	0.79040
515.50	0.80128
516.00	0.80746
516.50	0.81795
517.00	0.82510
517.50	0.83414
518.00	0.83891
518.50	0.84689
519.00	0.85112
519.50	0.86356
520.00	0.87253
520.50	0.87733
521.00	0.88248
521.50	0.89161
522.00	0.89462
522.50	0.90168
523.00	0.91082
523.50	0.91345
524.00	0.91957
524.50	0.92578
525.00	0.92762
525.50	0.93527
526.00	0.94043
526.50	0.94791
527.00	0.94949
527.50	0.95744
528.00	0.96045
528.50	0.96206
529.00	0.96398
529.50	0.96570
530.00	0.96889
530.50	0.97071
531.00	0.97683
531.50	0.97767
532.00	0.98276
532.50	0.98795
533.00	0.98255
533.50	0.98710
534.00	0.99278
534.50	0.99130
535.00	0.99278
535.50	0.99168
536.00	0.99488
536.50	0.99644
537.00	0.99730
537.50	0.99478
538.00	0.99871
538.50	1.0000
539.00	0.99456
539.50	0.99907
540.00	0.99774
540.50	0.99608
541.00	0.99662
541.50	0.99446
542.00	0.99889
542.50	0.99291
543.00	0.99326
543.50	0.99196
544.00	0.99364
544.50	0.98596
545.00	0.98641
545.50	0.98667
546.00	0.98303
546.50	0.98162
547.00	0.98056
547.50	0.97747
548.00	0.97840
548.50	0.97618
549.00	0.97920
549.50	0.96820
550.00	0.96930
550.50	0.96186
551.00	0.96003
551.50	0.95947
552.00	0.95632
552.50	0.95422
553.00	0.95012
553.50	0.94721
554.00	0.94465
554.50	0.94338
555.00	0.93517
555.50	0.93251
556.00	0.92991
556.50	0.92815
557.00	0.92352
557.50	0.91850
558.00	0.91846
558.50	0.91495
559.00	0.91169
559.50	0.90396
560.00	0.90165
560.50	0.89890
561.00	0.89422
561.50	0.88719
562.00	0.88782
562.50	0.88255
563.00	0.87640
563.50	0.86864
564.00	0.86630
564.50	0.86124
565.00	0.85803
565.50	0.85552
566.00	0.84967
566.50	0.84538
567.00	0.84468
567.50	0.83490
568.00	0.83428
568.50	0.82378
569.00	0.82063
569.50	0.81474
570.00	0.81394
570.50	0.80351
571.00	0.80576
571.50	0.79299
572.00	0.79467
572.50	0.78580
573.00	0.78501
573.50	0.77681
574.00	0.77641
574.50	0.76685
575.00	0.76479
575.50	0.75585
576.00	0.75298
576.50	0.74602
577.00	0.74168
577.50	0.73569
578.00	0.73198
578.50	0.72719
579.00	0.71896
579.50	0.70982
580.00	0.71188
580.50	0.70249
581.00	0.70155
581.50	0.69440
582.00	0.69012
582.50	0.68327
583.00	0.68190
583.50	0.67226
584.00	0.67147
584.50	0.66811
585.00	0.66103
585.50	0.65274
586.00	0.64860
586.50	0.64312
587.00	0.64431
587.50	0.63593
588.00	0.63184
588.50	0.62498
589.00	0.61893
589.50	0.61504
590.00	0.61086
590.50	0.60453
591.00	0.60387
591.50	0.59235
592.00	0.59264
592.50	0.58706
593.00	0.58193
593.50	0.57276
594.00	0.57111
594.50	0.56571
595.00	0.56567
595.50	0.55711
596.00	0.55359
596.50	0.54825
597.00	0.54662
597.50	0.53506
598.00	0.53309
598.50	0.52949
599.00	0.52436
599.50	0.51540
600.00	0.51276
600.50	0.51148
601.00	0.50190
601.50	0.49831
602.00	0.49556
602.50	0.49249
603.00	0.48620
603.50	0.47879
604.00	0.48002
604.50	0.47161
605.00	0.46877
605.50	0.46152
606.00	0.46148
606.50	0.45564
607.00	0.45434
607.50	0.44658
608.00	0.44835
608.50	0.44056
609.00	0.43589
609.50	0.43026
610.00	0.42954
610.50	0.42442
611.00	0.42126
611.50	0.41448
612.00	0.41145
612.50	0.40760
613.00	0.40385
613.50	0.39919
614.00	0.39654
614.50	0.39112
615.00	0.39016
615.50	0.38321
616.00	0.38373
616.50	0.37772
617.00	0.37602
617.50	0.37012
618.00	0.36840
618.50	0.36622
619.00	0.36158
619.50	0.35864
620.00	0.35578
620.50	0.35194
621.00	0.35143
621.50	0.34192
622.00	0.33996
622.50	0.33769
623.00	0.33453
623.50	0.33149
624.00	0.32960
624.50	0.32620
625.00	0.32246
625.50	0.31562
626.00	0.31337
626.50	0.30855
627.00	0.30632
627.50	0.30083
628.00	0.29782
628.50	0.29661
629.00	0.29566
629.50	0.29230
630.00	0.28842
630.50	0.28736
631.00	0.28495
631.50	0.28257
632.00	0.27947
632.50	0.27507
633.00	0.27395
633.50	0.26859
634.00	0.26753
634.50	0.26488
635.00	0.26604
635.50	0.26114
636.00	0.25889
636.50	0.25230
637.00	0.24964
637.50	0.24930
638.00	0.24725
638.50	0.24570
639.00	0.24131
639.50	0.23996
640.00	0.23613
640.50	0.23401
641.00	0.23255
641.50	0.22752
642.00	0.22989
642.50	0.22343
643.00	0.22187
643.50	0.21932
644.00	0.21840
644.50	0.21522
645.00	0.21290
645.50	0.21166
646.00	0.20661
646.50	0.20895
647.00	0.20526
647.50	0.20228
648.00	0.20229
648.50	0.19870
649.00	0.19242
649.50	0.19080
650.00	0.18959
650.50	0.19072
651.00	0.18597
651.50	0.18520
652.00	0.18404
652.50	0.18208
653.00	0.17813
653.50	0.17786
654.00	0.17384
654.50	0.17432
655.00	0.17313
655.50	0.16853
656.00	0.16962
656.50	0.16675
657.00	0.16599
657.50	0.16007
658.00	0.16454
658.50	0.16134
659.00	0.15905
659.50	0.15366
660.00	0.15520
660.50	0.15353
661.00	0.15119
661.50	0.15032
662.00	0.14749
662.50	0.14293
663.00	0.14443
663.50	0.14479
664.00	0.14314
664.50	0.14063
665.00	0.13743
665.50	0.13696
666.00	0.13699
666.50	0.13533
667.00	0.13366
667.50	0.13241
668.00	0.13115
668.50	0.12980
669.00	0.12807
669.50	0.12696
670.00	0.12748
670.50	0.12474
671.00	0.12100
671.50	0.12295
672.00	0.12175
672.50	0.11788
673.00	0.11921
673.50	0.11718
674.00	0.11554
674.50	0.11472
675.00	0.11258
675.50	0.11147
676.00	0.11097
676.50	0.10945
677.00	0.10840
677.50	0.10616
678.00	0.10649
678.50	0.10553
679.00	0.10185
679.50	0.10346
680.00	0.10287
680.50	0.098839
681.00	0.099392
681.50	0.099279
682.00	0.096628
682.50	0.096086
683.00	0.095158
683.50	0.091565
684.00	0.093589
684.50	0.094690
685.00	0.091142
685.50	0.089782
686.00	0.088408
686.50	0.087754
687.00	0.087121
687.50	0.084928
688.00	0.084492
688.50	0.084656
689.00	0.084237
689.50	0.081210
690.00	0.084855
690.50	0.079573
691.00	0.079289
691.50	0.080581
692.00	0.078704
692.50	0.078126
693.00	0.078276
693.50	0.076756
694.00	0.076110
694.50	0.075975
695.00	0.074476
695.50	0.072324
696.00	0.073509
696.50	0.070949
697.00	0.068837
697.50	0.069442
698.00	0.072280
698.50	0.071567
699.00	0.069622
699.50	0.069159
700.00	0.067583
