Wavelength (nm)	O-3, 36322-90-4, Piroxicam.ems
376.50	0.072140
377.00	0.074662
377.50	0.076104
378.00	0.078250
378.50	0.079373
379.00	0.080234
379.50	0.083023
380.00	0.085348
380.50	0.087112
381.00	0.088880
381.50	0.092064
382.00	0.091346
382.50	0.098153
383.00	0.099331
383.50	0.10123
384.00	0.10278
384.50	0.10627
385.00	0.10649
385.50	0.11037
386.00	0.11283
386.50	0.11769
387.00	0.11884
387.50	0.12132
388.00	0.12376
388.50	0.12972
389.00	0.13205
389.50	0.13492
390.00	0.13696
390.50	0.14349
391.00	0.14512
391.50	0.14852
392.00	0.15290
392.50	0.15833
393.00	0.16273
393.50	0.16482
394.00	0.16864
394.50	0.17652
395.00	0.18058
395.50	0.18647
396.00	0.18982
396.50	0.19650
397.00	0.19686
397.50	0.20619
398.00	0.21139
398.50	0.21887
399.00	0.22059
399.50	0.22896
400.00	0.23558
400.50	0.24167
401.00	0.24599
401.50	0.25113
402.00	0.26136
402.50	0.26703
403.00	0.26735
403.50	0.27956
404.00	0.28479
404.50	0.29029
405.00	0.29406
405.50	0.30357
406.00	0.30874
406.50	0.32198
407.00	0.32736
407.50	0.33700
408.00	0.34314
408.50	0.35369
409.00	0.35480
409.50	0.36852
410.00	0.37321
410.50	0.37847
411.00	0.38331
411.50	0.39525
412.00	0.40393
412.50	0.41079
413.00	0.41636
413.50	0.42204
414.00	0.42879
414.50	0.44156
415.00	0.44658
415.50	0.45219
416.00	0.45902
416.50	0.47172
417.00	0.47694
417.50	0.48817
418.00	0.49273
418.50	0.50249
419.00	0.51105
419.50	0.51859
420.00	0.52133
420.50	0.53757
421.00	0.54496
421.50	0.55114
422.00	0.56420
422.50	0.57357
423.00	0.57721
423.50	0.58795
424.00	0.59577
424.50	0.60360
425.00	0.61009
425.50	0.62238
426.00	0.62637
426.50	0.64009
427.00	0.64588
427.50	0.65656
428.00	0.66424
428.50	0.67304
429.00	0.67783
429.50	0.68641
430.00	0.69331
430.50	0.70387
431.00	0.71106
431.50	0.72066
432.00	0.72210
432.50	0.73412
433.00	0.73711
433.50	0.74907
434.00	0.75325
434.50	0.76756
435.00	0.76823
435.50	0.77559
436.00	0.77818
436.50	0.78730
437.00	0.79711
437.50	0.80291
438.00	0.80695
438.50	0.81558
439.00	0.81437
439.50	0.82410
440.00	0.82801
440.50	0.83775
441.00	0.84346
441.50	0.84596
442.00	0.85162
442.50	0.85458
443.00	0.86338
443.50	0.86896
444.00	0.87466
444.50	0.88111
445.00	0.87990
445.50	0.88662
446.00	0.88695
446.50	0.89125
447.00	0.89829
447.50	0.90713
448.00	0.90817
448.50	0.91346
449.00	0.91878
449.50	0.91780
450.00	0.92141
450.50	0.92536
451.00	0.92661
451.50	0.93776
452.00	0.93971
452.50	0.94104
453.00	0.94291
453.50	0.95035
454.00	0.94979
454.50	0.95564
455.00	0.95215
455.50	0.96131
456.00	0.96268
456.50	0.96201
457.00	0.97048
457.50	0.96465
458.00	0.97059
458.50	0.97261
459.00	0.97621
459.50	0.97862
460.00	0.97807
460.50	0.97878
461.00	0.97871
461.50	0.98258
462.00	0.98369
462.50	0.98476
463.00	0.98758
463.50	0.98681
464.00	0.98566
464.50	0.99299
465.00	0.99068
465.50	0.99491
466.00	0.99409
466.50	0.99832
467.00	0.99881
467.50	0.99464
468.00	0.99790
468.50	0.99443
469.00	0.99166
469.50	0.99775
470.00	0.99510
470.50	0.99244
471.00	0.99608
471.50	0.99907
472.00	0.99949
472.50	0.99563
473.00	0.99572
473.50	0.99480
474.00	0.99546
474.50	0.99204
475.00	0.99239
475.50	0.99783
476.00	1.00000
476.50	0.98954
477.00	0.99094
477.50	0.99053
478.00	0.98779
478.50	0.98067
479.00	0.98105
479.50	0.98214
480.00	0.97914
480.50	0.97113
481.00	0.97958
481.50	0.97623
482.00	0.97661
482.50	0.97443
483.00	0.96701
483.50	0.96103
484.00	0.96923
484.50	0.96604
485.00	0.96591
485.50	0.95850
486.00	0.95769
486.50	0.95420
487.00	0.95500
487.50	0.95069
488.00	0.94209
488.50	0.94309
489.00	0.94024
489.50	0.93474
490.00	0.93782
490.50	0.93366
491.00	0.93128
491.50	0.93027
492.00	0.92782
492.50	0.92572
493.00	0.92172
493.50	0.92115
494.00	0.91707
494.50	0.91141
495.00	0.90465
495.50	0.90418
496.00	0.90676
496.50	0.89961
497.00	0.89817
497.50	0.89372
498.00	0.89010
498.50	0.88148
499.00	0.88363
499.50	0.88453
500.00	0.87830
500.50	0.86911
501.00	0.87137
501.50	0.87272
502.00	0.86292
502.50	0.85468
503.00	0.85676
503.50	0.85577
504.00	0.84529
504.50	0.84231
505.00	0.84807
505.50	0.83531
506.00	0.83516
506.50	0.82874
507.00	0.82600
507.50	0.82031
508.00	0.81716
508.50	0.81199
509.00	0.80972
509.50	0.81026
510.00	0.80520
510.50	0.79191
511.00	0.79337
511.50	0.79001
512.00	0.78484
512.50	0.77805
513.00	0.77717
513.50	0.77313
514.00	0.77347
514.50	0.77065
515.00	0.76536
515.50	0.76140
516.00	0.75568
516.50	0.75128
517.00	0.74811
517.50	0.74301
518.00	0.74289
518.50	0.74087
519.00	0.73678
519.50	0.73004
520.00	0.73610
520.50	0.72163
521.00	0.71902
521.50	0.71503
522.00	0.71035
522.50	0.71038
523.00	0.70317
523.50	0.69933
524.00	0.70146
524.50	0.68814
525.00	0.69223
525.50	0.68664
526.00	0.68475
526.50	0.67364
527.00	0.67707
527.50	0.66627
528.00	0.66553
528.50	0.65740
529.00	0.65376
529.50	0.64893
530.00	0.64966
530.50	0.64374
531.00	0.64184
531.50	0.63164
532.00	0.63557
532.50	0.62649
533.00	0.61743
533.50	0.62086
534.00	0.61397
534.50	0.61751
535.00	0.61254
535.50	0.60809
536.00	0.59933
536.50	0.60075
537.00	0.59570
537.50	0.58844
538.00	0.59246
538.50	0.58321
539.00	0.58246
539.50	0.57604
540.00	0.57409
540.50	0.57121
541.00	0.57104
541.50	0.56412
542.00	0.55604
542.50	0.55086
543.00	0.55442
543.50	0.54764
544.00	0.54691
544.50	0.53753
545.00	0.53364
545.50	0.53395
546.00	0.53037
546.50	0.53003
547.00	0.52693
547.50	0.51968
548.00	0.51890
548.50	0.51208
549.00	0.50993
549.50	0.50827
550.00	0.50099
550.50	0.49985
551.00	0.50064
551.50	0.49271
552.00	0.49110
552.50	0.48422
553.00	0.48653
553.50	0.47944
554.00	0.47596
554.50	0.47087
555.00	0.46985
555.50	0.46474
556.00	0.46402
556.50	0.45615
557.00	0.45393
557.50	0.45184
558.00	0.45349
558.50	0.44998
559.00	0.44620
559.50	0.43994
560.00	0.44370
560.50	0.43522
561.00	0.43322
561.50	0.42841
562.00	0.42335
562.50	0.42681
563.00	0.42210
563.50	0.41479
564.00	0.41495
564.50	0.41016
565.00	0.41105
565.50	0.40982
566.00	0.40465
566.50	0.39991
567.00	0.39880
567.50	0.39650
568.00	0.39356
568.50	0.38819
569.00	0.38732
569.50	0.38411
570.00	0.38860
570.50	0.38190
571.00	0.37250
571.50	0.37629
572.00	0.37414
572.50	0.36818
573.00	0.36715
573.50	0.36150
574.00	0.36422
574.50	0.35688
575.00	0.35543
575.50	0.35532
576.00	0.35138
576.50	0.34887
577.00	0.34858
577.50	0.34017
578.00	0.33943
578.50	0.33520
579.00	0.33682
579.50	0.33215
580.00	0.33197
580.50	0.32693
581.00	0.33306
581.50	0.32652
582.00	0.32482
582.50	0.32058
583.00	0.32036
583.50	0.31293
584.00	0.31852
584.50	0.31393
585.00	0.31009
585.50	0.30729
586.00	0.30852
586.50	0.30364
587.00	0.30596
587.50	0.29883
588.00	0.29907
588.50	0.29351
589.00	0.29333
589.50	0.28601
590.00	0.28892
590.50	0.28643
591.00	0.28731
591.50	0.28265
592.00	0.27883
592.50	0.27652
593.00	0.27709
593.50	0.27492
594.00	0.26910
594.50	0.27315
595.00	0.26768
595.50	0.26604
596.00	0.26659
596.50	0.26587
597.00	0.26347
597.50	0.25560
598.00	0.25736
598.50	0.25615
599.00	0.25509
599.50	0.25418
600.00	0.25203
600.50	0.24872
601.00	0.24909
601.50	0.24582
602.00	0.24436
602.50	0.24748
603.00	0.24532
603.50	0.24050
604.00	0.23434
604.50	0.23334
605.00	0.23354
605.50	0.23457
606.00	0.22929
606.50	0.23008
607.00	0.22921
607.50	0.22887
608.00	0.22754
608.50	0.22513
609.00	0.22451
609.50	0.22310
610.00	0.22085
610.50	0.21935
611.00	0.22291
611.50	0.21811
612.00	0.21868
612.50	0.21588
613.00	0.22010
613.50	0.21486
614.00	0.21226
614.50	0.20994
615.00	0.21275
615.50	0.21055
616.00	0.20912
616.50	0.20552
617.00	0.20626
617.50	0.20200
618.00	0.20791
618.50	0.20140
619.00	0.20388
619.50	0.19964
620.00	0.19860
620.50	0.20023
621.00	0.19798
621.50	0.20208
622.00	0.20390
622.50	0.19618
623.00	0.20080
623.50	0.19927
624.00	0.19767
624.50	0.19461
625.00	0.19763
625.50	0.19302
626.00	0.19108
626.50	0.18962
627.00	0.18994
627.50	0.19032
628.00	0.18866
628.50	0.18695
629.00	0.18690
629.50	0.18800
630.00	0.18747
630.50	0.18312
631.00	0.18348
631.50	0.18527
632.00	0.18670
632.50	0.18492
633.00	0.18692
633.50	0.18747
634.00	0.18927
634.50	0.18479
635.00	0.18456
635.50	0.18126
636.00	0.18543
636.50	0.18333
637.00	0.18587
637.50	0.18571
638.00	0.18746
638.50	0.18190
639.00	0.17868
639.50	0.18436
640.00	0.17934
640.50	0.18113
641.00	0.18976
641.50	0.17864
642.00	0.18309
642.50	0.18338
643.00	0.17993
643.50	0.18449
644.00	0.18180
644.50	0.18618
645.00	0.19042
645.50	0.18417
