Wavelength (nm)	P03 abs N
350.00	0.21551
350.25	0.21523
350.50	0.21526
350.75	0.21194
351.00	0.20995
351.25	0.20703
351.50	0.20835
351.75	0.20542
352.00	0.20693
352.25	0.20985
352.50	0.20544
352.75	0.20557
353.00	0.20404
353.25	0.20126
353.50	0.20106
353.75	0.20156
354.00	0.19948
354.25	0.19631
354.50	0.19693
354.75	0.19437
355.00	0.19433
355.25	0.19264
355.50	0.19046
355.75	0.19010
356.00	0.18794
356.25	0.18423
356.50	0.18516
356.75	0.18677
357.00	0.18149
357.25	0.18019
357.50	0.17946
357.75	0.17714
358.00	0.17863
358.25	0.17839
358.50	0.17372
358.75	0.17717
359.00	0.17237
359.25	0.17198
359.50	0.16999
359.75	0.16771
360.00	0.16543
360.25	0.16584
360.50	0.16288
360.75	0.16401
361.00	0.16305
361.25	0.15786
361.50	0.15927
361.75	0.15896
362.00	0.15893
362.25	0.15540
362.50	0.15608
362.75	0.15171
363.00	0.15042
363.25	0.15014
363.50	0.15028
363.75	0.14844
364.00	0.14434
364.25	0.14378
364.50	0.14466
364.75	0.14385
365.00	0.14047
365.25	0.14191
365.50	0.14175
365.75	0.13843
366.00	0.13606
366.25	0.13494
366.50	0.13379
366.75	0.13383
367.00	0.13147
367.25	0.13003
367.50	0.13109
367.75	0.12871
368.00	0.12847
368.25	0.12738
368.50	0.12560
368.75	0.12566
369.00	0.12297
369.25	0.12354
369.50	0.12280
369.75	0.12007
370.00	0.11991
370.25	0.11626
370.50	0.11432
370.75	0.11405
371.00	0.11192
371.25	0.11398
371.50	0.11238
371.75	0.11114
372.00	0.11189
372.25	0.10911
372.50	0.10597
372.75	0.10827
373.00	0.10629
373.25	0.10572
373.50	0.10185
373.75	0.10396
374.00	0.10242
374.25	0.10379
374.50	0.10093
374.75	0.098879
375.00	0.10029
375.25	0.099509
375.50	0.099696
375.75	0.099574
376.00	0.095267
376.25	0.097882
376.50	0.096004
376.75	0.095341
377.00	0.094490
377.25	0.093295
377.50	0.096820
377.75	0.090788
378.00	0.092872
378.25	0.090700
378.50	0.091550
378.75	0.088511
379.00	0.090020
379.25	0.088640
379.50	0.084353
379.75	0.086802
380.00	0.088110
380.25	0.087505
380.50	0.084491
380.75	0.086359
381.00	0.084235
381.25	0.083325
381.50	0.083341
381.75	0.083676
382.00	0.083358
382.25	0.084182
382.50	0.083021
382.75	0.080166
383.00	0.080165
383.25	0.080294
383.50	0.080920
383.75	0.081369
384.00	0.078568
384.25	0.078266
384.50	0.078956
384.75	0.077699
385.00	0.074899
385.25	0.074716
385.50	0.076517
385.75	0.073578
386.00	0.074259
386.25	0.073182
386.50	0.073482
386.75	0.074754
387.00	0.075055
387.25	0.073177
387.50	0.071253
387.75	0.072599
388.00	0.070435
388.25	0.069081
388.50	0.069149
388.75	0.069191
389.00	0.069405
389.25	0.068022
389.50	0.067333
389.75	0.065434
390.00	0.063716
390.25	0.065566
390.50	0.064576
390.75	0.064039
391.00	0.061478
391.25	0.060059
391.50	0.062251
391.75	0.060906
392.00	0.059261
392.25	0.059912
392.50	0.058793
392.75	0.058516
393.00	0.056012
393.25	0.056144
393.50	0.054915
393.75	0.054796
394.00	0.053246
394.25	0.052074
394.50	0.052379
394.75	0.051532
395.00	0.049522
395.25	0.046283
395.50	0.050346
395.75	0.047082
396.00	0.044146
396.25	0.044144
396.50	0.044057
396.75	0.042704
397.00	0.042262
397.25	0.043127
397.50	0.043208
397.75	0.040048
398.00	0.038981
398.25	0.039530
398.50	0.040544
398.75	0.037177
399.00	0.035949
399.25	0.037139
399.50	0.037910
399.75	0.032154
400.00	0.035615
400.25	0.033094
400.50	0.033521
400.75	0.031745
401.00	0.030933
401.25	0.031722
401.50	0.028546
401.75	0.031723
402.00	0.030882
402.25	0.029972
402.50	0.028448
402.75	0.028796
403.00	0.028782
403.25	0.028797
403.50	0.028513
403.75	0.027558
404.00	0.025853
404.25	0.025101
404.50	0.023419
404.75	0.023879
405.00	0.024009
405.25	0.022497
405.50	0.024734
405.75	0.022114
406.00	0.023274
406.25	0.020677
406.50	0.022456
406.75	0.022076
407.00	0.021083
407.25	0.021575
407.50	0.021348
407.75	0.018018
408.00	0.020177
408.25	0.021542
408.50	0.019906
408.75	0.018535
409.00	0.020241
409.25	0.018311
409.50	0.018878
409.75	0.017397
410.00	0.018103
410.25	0.017409
410.50	0.020520
410.75	0.019164
411.00	0.018458
411.25	0.018826
411.50	0.018774
411.75	0.017736
412.00	0.018118
412.25	0.017713
412.50	0.017411
412.75	0.018376
413.00	0.017523
413.25	0.015134
413.50	0.016378
413.75	0.017436
414.00	0.017075
414.25	0.017664
414.50	0.016699
414.75	0.016467
415.00	0.018739
415.25	0.017138
415.50	0.015467
415.75	0.018992
416.00	0.016358
416.25	0.016197
416.50	0.017419
416.75	0.018953
417.00	0.018370
417.25	0.018562
417.50	0.017153
417.75	0.018229
418.00	0.017731
418.25	0.019090
418.50	0.018372
418.75	0.017973
419.00	0.018226
419.25	0.017875
419.50	0.017509
419.75	0.017935
420.00	0.018123
420.25	0.018943
420.50	0.019218
420.75	0.020444
421.00	0.018875
421.25	0.020309
421.50	0.020213
421.75	0.020972
422.00	0.020247
422.25	0.021725
422.50	0.020250
422.75	0.021582
423.00	0.021118
423.25	0.022448
423.50	0.021484
423.75	0.021145
424.00	0.020622
424.25	0.021925
424.50	0.023241
424.75	0.023964
425.00	0.023526
425.25	0.024259
425.50	0.023058
425.75	0.024823
426.00	0.025907
426.25	0.023080
426.50	0.024700
426.75	0.023855
427.00	0.023983
427.25	0.024378
427.50	0.025730
427.75	0.026034
428.00	0.025380
428.25	0.026938
428.50	0.025949
428.75	0.026033
429.00	0.027112
429.25	0.026512
429.50	0.026862
429.75	0.028945
430.00	0.027669
430.25	0.028314
430.50	0.029650
430.75	0.029146
431.00	0.027873
431.25	0.030814
431.50	0.029845
431.75	0.030333
432.00	0.031430
432.25	0.033355
432.50	0.030997
432.75	0.032897
433.00	0.033139
433.25	0.031475
433.50	0.033782
433.75	0.033331
434.00	0.034654
434.25	0.036239
434.50	0.034321
434.75	0.037136
435.00	0.035890
435.25	0.037147
435.50	0.038029
435.75	0.037329
436.00	0.038822
436.25	0.039905
436.50	0.041220
436.75	0.040668
437.00	0.040325
437.25	0.040458
437.50	0.043124
437.75	0.043403
438.00	0.044507
438.25	0.045024
438.50	0.043421
438.75	0.045977
439.00	0.047437
439.25	0.046289
439.50	0.049146
439.75	0.048202
440.00	0.049730
440.25	0.049873
440.50	0.050185
440.75	0.051315
441.00	0.051917
441.25	0.053935
441.50	0.053574
441.75	0.054485
442.00	0.055872
442.25	0.055393
442.50	0.057275
442.75	0.058322
443.00	0.058357
443.25	0.058272
443.50	0.060993
443.75	0.062254
444.00	0.062770
444.25	0.062184
444.50	0.062196
444.75	0.064525
445.00	0.065991
445.25	0.065965
445.50	0.067067
445.75	0.069091
446.00	0.069134
446.25	0.068770
446.50	0.071218
446.75	0.071456
447.00	0.071576
447.25	0.073256
447.50	0.076086
447.75	0.075597
448.00	0.076811
448.25	0.078608
448.50	0.079021
448.75	0.080509
449.00	0.081698
449.25	0.083913
449.50	0.082346
449.75	0.085527
450.00	0.087311
450.25	0.087002
450.50	0.088844
450.75	0.088645
451.00	0.092017
451.25	0.092097
451.50	0.091850
451.75	0.094277
452.00	0.096678
452.25	0.096112
452.50	0.096565
452.75	0.10007
453.00	0.10033
453.25	0.10149
453.50	0.10190
453.75	0.10356
454.00	0.10469
454.25	0.10680
454.50	0.10744
454.75	0.10793
455.00	0.11029
455.25	0.11053
455.50	0.11117
455.75	0.11372
456.00	0.11577
456.25	0.11517
456.50	0.11826
456.75	0.11865
457.00	0.12198
457.25	0.12222
457.50	0.12460
457.75	0.12654
458.00	0.12836
458.25	0.12975
458.50	0.13276
458.75	0.13440
459.00	0.13610
459.25	0.13769
459.50	0.14030
459.75	0.14230
460.00	0.14439
460.25	0.14577
460.50	0.14969
460.75	0.15177
461.00	0.15439
461.25	0.15639
461.50	0.16040
461.75	0.16059
462.00	0.16499
462.25	0.16624
462.50	0.17043
462.75	0.17351
463.00	0.17491
463.25	0.17836
463.50	0.18045
463.75	0.18458
464.00	0.18824
464.25	0.19198
464.50	0.19401
464.75	0.19825
465.00	0.20085
465.25	0.20508
465.50	0.20712
465.75	0.21006
466.00	0.21395
466.25	0.21829
466.50	0.22048
466.75	0.22545
467.00	0.22865
467.25	0.23081
467.50	0.23762
467.75	0.24017
468.00	0.24383
468.25	0.24772
468.50	0.25260
468.75	0.25620
469.00	0.26060
469.25	0.26324
469.50	0.26685
469.75	0.27145
470.00	0.27662
470.25	0.27974
470.50	0.28409
470.75	0.28792
471.00	0.29047
471.25	0.29590
471.50	0.29893
471.75	0.30218
472.00	0.30601
472.25	0.31244
472.50	0.31440
472.75	0.31961
473.00	0.32306
473.25	0.32585
473.50	0.32857
473.75	0.33252
474.00	0.33669
474.25	0.33963
474.50	0.34278
474.75	0.34767
475.00	0.35076
475.25	0.35492
475.50	0.36023
475.75	0.36298
476.00	0.36786
476.25	0.36964
476.50	0.37501
476.75	0.37695
477.00	0.38066
477.25	0.38289
477.50	0.38494
477.75	0.38815
478.00	0.39094
478.25	0.39283
478.50	0.39507
478.75	0.39577
479.00	0.39802
479.25	0.40010
479.50	0.40378
479.75	0.40633
480.00	0.40708
480.25	0.40986
480.50	0.41065
480.75	0.41465
481.00	0.41639
481.25	0.41676
481.50	0.41747
481.75	0.42056
482.00	0.42261
482.25	0.42407
482.50	0.42691
482.75	0.42832
483.00	0.43030
483.25	0.43283
483.50	0.43423
483.75	0.43676
484.00	0.43924
484.25	0.44201
484.50	0.44428
484.75	0.44621
485.00	0.44823
485.25	0.45240
485.50	0.45340
485.75	0.45748
486.00	0.46049
486.25	0.46363
486.50	0.46875
486.75	0.47089
487.00	0.47564
487.25	0.47851
487.50	0.48314
487.75	0.48779
488.00	0.49168
488.25	0.49761
488.50	0.50402
488.75	0.50791
489.00	0.51469
489.25	0.52029
489.50	0.52779
489.75	0.53236
490.00	0.54302
490.25	0.54915
490.50	0.55737
490.75	0.56241
491.00	0.57287
491.25	0.57976
491.50	0.59013
491.75	0.59845
492.00	0.61114
492.25	0.61664
492.50	0.62872
492.75	0.64004
493.00	0.64890
493.25	0.66067
493.50	0.67145
493.75	0.67977
494.00	0.69156
494.25	0.70238
494.50	0.70800
494.75	0.71315
495.00	0.72174
495.25	0.73275
495.50	0.74640
495.75	0.75621
496.00	0.76862
496.25	0.78024
496.50	0.79239
496.75	0.80612
497.00	0.81526
497.25	0.82893
497.50	0.84127
497.75	0.85045
498.00	0.86382
498.25	0.87038
498.50	0.88327
498.75	0.89626
499.00	0.90759
499.25	0.91222
499.50	0.92156
499.75	0.93436
500.00	0.94326
500.25	0.95108
500.50	0.95576
500.75	0.96583
501.00	0.97230
501.25	0.97808
501.50	0.98289
501.75	0.98374
502.00	0.98947
502.25	0.99201
502.50	0.99378
502.75	1.0000
503.00	0.99963
503.25	0.99478
503.50	0.99875
503.75	0.99479
504.00	0.99451
504.25	0.99238
504.50	0.98650
504.75	0.98619
505.00	0.98259
505.25	0.97695
505.50	0.96713
505.75	0.96059
506.00	0.95445
506.25	0.94511
506.50	0.93473
506.75	0.92845
507.00	0.91895
507.25	0.90540
507.50	0.89512
507.75	0.88373
508.00	0.86950
508.25	0.85987
508.50	0.84711
508.75	0.83394
509.00	0.81969
509.25	0.80524
509.50	0.79296
509.75	0.77474
510.00	0.75740
510.25	0.74499
510.50	0.72834
510.75	0.71098
511.00	0.69705
511.25	0.68031
511.50	0.66849
511.75	0.64892
512.00	0.63123
512.25	0.61706
512.50	0.60102
512.75	0.58451
513.00	0.56781
513.25	0.55634
513.50	0.53995
513.75	0.52310
514.00	0.50808
514.25	0.49285
514.50	0.48107
514.75	0.46450
515.00	0.44918
515.25	0.43129
515.50	0.41339
515.75	0.39656
516.00	0.38164
516.25	0.36572
516.50	0.35427
516.75	0.33949
517.00	0.33056
517.25	0.31886
517.50	0.30766
517.75	0.29654
518.00	0.28693
518.25	0.27503
518.50	0.26824
518.75	0.25717
519.00	0.24722
519.25	0.23872
519.50	0.23123
519.75	0.22232
520.00	0.21412
520.25	0.20697
520.50	0.19841
520.75	0.18902
521.00	0.18245
521.25	0.17647
521.50	0.17001
521.75	0.16482
522.00	0.15677
522.25	0.15019
522.50	0.14462
522.75	0.13860
523.00	0.13558
523.25	0.12755
523.50	0.12366
523.75	0.11850
524.00	0.11482
524.25	0.10943
524.50	0.10405
524.75	0.10080
525.00	0.097392
525.25	0.093401
525.50	0.088995
525.75	0.085994
526.00	0.080924
526.25	0.077082
526.50	0.075109
526.75	0.070178
527.00	0.068688
527.25	0.066227
527.50	0.063838
527.75	0.061889
528.00	0.058584
528.25	0.055713
528.50	0.054481
528.75	0.050996
529.00	0.047505
529.25	0.045913
529.50	0.045295
529.75	0.043844
530.00	0.041716
530.25	0.039929
530.50	0.038409
530.75	0.037128
531.00	0.035079
531.25	0.032952
531.50	0.032789
531.75	0.031144
532.00	0.029313
532.25	0.028631
532.50	0.027657
532.75	0.026232
533.00	0.025233
533.25	0.024091
533.50	0.022618
533.75	0.021339
534.00	0.021028
534.25	0.020235
534.50	0.020674
534.75	0.019569
535.00	0.017852
535.25	0.018343
535.50	0.017221
535.75	0.016434
536.00	0.014643
536.25	0.015613
536.50	0.015070
536.75	0.013547
537.00	0.013946
537.25	0.013425
537.50	0.012744
537.75	0.011945
538.00	0.012107
538.25	0.010746
538.50	0.010449
538.75	0.010282
539.00	0.010904
539.25	0.0099459
539.50	0.0099857
539.75	0.0083033
540.00	0.0078486
540.25	0.0074608
540.50	0.0084946
540.75	0.0071192
541.00	0.0080463
541.25	0.0060923
541.50	0.0063683
541.75	0.0060039
542.00	0.0052619
542.25	0.0060235
542.50	0.0056332
542.75	0.0066550
543.00	0.0059218
543.25	0.0047529
543.50	0.0043152
543.75	0.0052227
544.00	0.0039129
544.25	0.0033888
544.50	0.0055063
544.75	0.0041769
545.00	0.0037689
545.25	0.0048394
545.50	0.0044232
545.75	0.0034380
546.00	0.0029997
546.25	0.0036010
546.50	0.0035069
546.75	0.0031418
547.00	0.0033174
547.25	0.0031526
547.50	0.0037614
547.75	0.0026511
548.00	0.0032713
548.25	0.0022609
548.50	0.0028381
548.75	0.0015883
549.00	0.0018491
549.25	0.0023284
549.50	0.0022533
549.75	0.0015971
550.00	0.0025823
550.25	0.0030250
550.50	0.0016881
550.75	0.0024200
551.00	0.0027421
551.25	0.0017544
551.50	0.0010793
551.75	0.0010919
552.00	0.0014070
552.25	0.0011734
552.50	0.0018750
552.75	0.0013426
553.00	0.00081782
553.25	0.0019236
553.50	0.0018466
553.75	0.00084309
554.00	0.0024762
554.25	0.0016710
554.50	0.00054248
554.75	0.0013066
555.00	0.0015744
555.25	0.0018011
555.50	0.0020171
555.75	0.0019097
556.00	0.0011260
556.25	0.00061005
556.50	0.00023303
556.75	0.00069531
557.00	0.0021510
557.25	0.0014342
557.50	0.0010578
557.75	0.0014607
558.00	0.0010281
558.25	0.00093718
558.50	0.00062900
558.75	0.00059805
559.00	0.0012264
559.25	0.0023632
559.50	0.00069531
559.75	0.0010313
560.00	0.00025008
560.25	0.00083298
560.50	0.0013079
560.75	0.0025817
561.00	0.00044649
561.25	0.00031513
561.50	0.0020992
561.75	0.0010458
562.00	0.0013249
562.25	0.00069405
562.50	0.0011298
562.75	0.00062268
563.00	0.0013849
563.25	0.0014089
563.50	0.0013009
563.75	0.00075088
564.00	0.0010117
564.25	0.0016420
564.50	0.0011898
564.75	0.00092203
565.00	0.0012744
565.25	0.00091066
565.50	0.00033281
565.75	0.00092203
566.00	0.00039786
566.25	0.0014885
566.50	0.00086014
566.75	0.00045154
567.00	0.00097002
567.25	-0.00046354
567.50	0.00094666
567.75	-0.00033155
568.00	0.00028608
568.25	0.00028166
568.50	0.0010824
568.75	0.00036376
569.00	0.00088287
569.25	-4.4207e-05
569.50	3.5997e-05
569.75	0.0014399
570.00	0.0011045
570.25	0.0011273
570.50	0.0014241
570.75	0.00081214
571.00	-9.2203e-05
571.25	-0.00039849
571.50	0.00045975
571.75	0.00027850
572.00	0.0016508
572.25	-0.00077046
572.50	0.0015794
572.75	0.0014064
573.00	9.4729e-06
573.25	-0.00014462
573.50	0.0015314
573.75	0.00064289
574.00	0.0011607
574.25	0.00015599
574.50	0.00089235
574.75	-0.00011746
575.00	0.0013489
575.25	0.0014664
575.50	-0.00017114
575.75	0.00062395
576.00	-0.00033976
576.25	0.00044207
576.50	0.00087150
576.75	0.0011203
577.00	0.00010420
577.25	0.0014601
577.50	-0.00017241
577.75	0.0014733
578.00	0.0014487
578.25	0.00023872
578.50	0.00053490
578.75	0.00053490
579.00	0.0019400
579.25	0.00093466
579.50	-0.00030124
579.75	0.00051911
580.00	0.0021466
580.25	0.0020285
580.50	0.00053174
580.75	0.0015927
581.00	0.00043638
581.25	0.0019154
581.50	0.00014588
581.75	0.00084435
582.00	0.00080898
582.25	0.00016167
582.50	0.0018750
582.75	-0.00025640
583.00	0.00050080
583.25	0.0014481
583.50	0.0016773
583.75	-0.00033408
584.00	0.0013780
584.25	0.0019243
584.50	0.0021693
584.75	0.00033471
585.00	0.00088792
585.25	0.0013508
585.50	0.0010420
585.75	0.0010862
586.00	0.0010458
586.25	0.00022988
586.50	-6.3153e-06
586.75	0.00051469
587.00	0.00063973
587.25	0.00069278
587.50	0.00040670
587.75	0.00066436
588.00	0.00081340
588.25	0.0010584
588.50	0.00032776
588.75	0.0012169
589.00	0.0015649
589.25	0.0019729
589.50	0.00076351
589.75	0.0011904
590.00	0.0020285
590.25	-0.00020588
590.50	0.0014923
590.75	0.0015365
591.00	0.0010199
591.25	0.0018384
591.50	0.0014279
591.75	0.0011184
592.00	0.0010862
592.25	0.0010439
592.50	0.0016009
592.75	0.00096813
593.00	0.0014973
593.25	0.0011980
593.50	0.0020171
593.75	1.8946e-06
594.00	0.00041996
594.25	0.0018914
594.50	0.00058542
594.75	0.00068078
595.00	0.00065363
595.25	0.0010786
595.50	0.00048438
595.75	0.00098834
596.00	0.0014310
596.25	0.0012201
596.50	0.0018333
596.75	0.00074394
597.00	0.00073320
597.25	0.00050838
597.50	0.0017045
597.75	0.00036755
598.00	0.00060311
598.25	0.0018017
598.50	-0.00015409
598.75	0.0013982
599.00	0.0013483
599.25	0.00097507
599.50	0.0016672
599.75	0.00028734
600.00	0.0013919
