Wavelength (nm)	P-6, 11327052, Bis(5-phenyldipyrrinato)zinc.ems
470.00	0.0054000
470.50	0.010310
471.00	0.012360
471.50	0.0087300
472.00	0.010200
472.50	0.020090
473.00	0.023110
473.50	0.018890
474.00	0.023480
474.50	0.017800
475.00	0.031960
475.50	0.038060
476.00	0.037710
476.50	0.035890
477.00	0.054000
477.50	0.050320
478.00	0.069260
478.50	0.071900
479.00	0.080570
479.50	0.087170
480.00	0.10190
480.50	0.11177
481.00	0.11957
481.50	0.13216
482.00	0.14326
482.50	0.17245
483.00	0.16475
483.50	0.21129
484.00	0.22339
484.50	0.24825
485.00	0.26432
485.50	0.30432
486.00	0.33543
486.50	0.35049
487.00	0.38545
487.50	0.42284
488.00	0.43319
488.50	0.48225
489.00	0.50505
489.50	0.53599
490.00	0.57665
490.50	0.59824
491.00	0.63396
491.50	0.67094
492.00	0.70771
492.50	0.73494
493.00	0.76760
493.50	0.78332
494.00	0.80761
494.50	0.84522
495.00	0.87129
495.50	0.87912
496.00	0.89503
496.50	0.92165
497.00	0.94572
497.50	0.95730
498.00	0.96323
498.50	0.97142
499.00	0.98332
499.50	0.99274
500.00	0.98153
500.50	1.0040
501.00	0.99998
501.50	0.99641
502.00	0.97408
502.50	0.99135
503.00	0.97794
503.50	0.96783
504.00	0.95807
504.50	0.96621
505.00	0.93646
505.50	0.94732
506.00	0.92454
506.50	0.91486
507.00	0.91725
507.50	0.89677
508.00	0.87963
508.50	0.87000
509.00	0.86541
509.50	0.84107
510.00	0.83571
510.50	0.80814
511.00	0.79518
511.50	0.79213
512.00	0.78463
512.50	0.79563
513.00	0.75760
513.50	0.75170
514.00	0.74564
514.50	0.72386
515.00	0.71337
515.50	0.72534
516.00	0.69595
516.50	0.67048
517.00	0.67095
517.50	0.66276
518.00	0.65126
518.50	0.64577
519.00	0.64464
519.50	0.64154
520.00	0.61983
520.50	0.61634
521.00	0.59970
521.50	0.59846
522.00	0.59117
522.50	0.57802
523.00	0.57354
523.50	0.56003
524.00	0.54000
524.50	0.54551
525.00	0.53584
525.50	0.52737
526.00	0.50830
526.50	0.51415
527.00	0.51705
527.50	0.49683
528.00	0.48128
528.50	0.48255
529.00	0.45959
529.50	0.47185
530.00	0.46251
530.50	0.43926
531.00	0.42459
531.50	0.42827
532.00	0.42706
532.50	0.42699
533.00	0.40201
533.50	0.39906
534.00	0.40112
534.50	0.39735
535.00	0.38471
535.50	0.37762
536.00	0.37943
536.50	0.37053
537.00	0.36065
537.50	0.34684
538.00	0.34660
538.50	0.34521
539.00	0.32581
539.50	0.32978
540.00	0.31803
540.50	0.31870
541.00	0.31051
541.50	0.30348
542.00	0.29614
542.50	0.28501
543.00	0.28503
543.50	0.27807
544.00	0.27744
544.50	0.26968
545.00	0.25955
545.50	0.25029
546.00	0.25017
546.50	0.24628
547.00	0.24766
547.50	0.24545
548.00	0.23386
548.50	0.23253
549.00	0.22814
549.50	0.22386
550.00	0.21021
550.50	0.21722
551.00	0.20898
551.50	0.20690
552.00	0.19166
552.50	0.18131
553.00	0.19630
553.50	0.18942
554.00	0.18164
554.50	0.18694
555.00	0.18400
555.50	0.16690
556.00	0.17310
556.50	0.16521
557.00	0.16021
557.50	0.15143
558.00	0.15341
558.50	0.15623
559.00	0.14763
559.50	0.14453
560.00	0.14865
560.50	0.14326
561.00	0.13165
561.50	0.13630
562.00	0.13486
562.50	0.13460
563.00	0.11902
563.50	0.12672
564.00	0.13695
564.50	0.11129
565.00	0.11859
565.50	0.11991
566.00	0.12943
566.50	0.11165
567.00	0.11642
567.50	0.10780
568.00	0.10012
568.50	0.10298
569.00	0.099180
569.50	0.10870
570.00	0.097810
570.50	0.098320
571.00	0.10076
571.50	0.091430
572.00	0.097910
572.50	0.081080
573.00	0.094970
573.50	0.090760
574.00	0.089450
574.50	0.085710
575.00	0.092240
575.50	0.090490
576.00	0.073950
576.50	0.078030
577.00	0.072130
577.50	0.077300
578.00	0.084290
578.50	0.067160
579.00	0.077600
579.50	0.070420
580.00	0.068300
580.50	0.063850
581.00	0.061150
581.50	0.068290
582.00	0.067090
582.50	0.068220
583.00	0.073850
583.50	0.065690
584.00	0.065120
584.50	0.062080
585.00	0.064280
585.50	0.063330
586.00	0.063330
586.50	0.063040
587.00	0.061300
587.50	0.052650
588.00	0.061670
588.50	0.053070
589.00	0.052240
589.50	0.061720
590.00	0.051250
590.50	0.045360
591.00	0.055000
591.50	0.048360
592.00	0.046520
592.50	0.048750
593.00	0.044720
593.50	0.047050
594.00	0.041980
594.50	0.039870
595.00	0.043270
595.50	0.041130
596.00	0.044510
596.50	0.032560
597.00	0.033810
597.50	0.041110
598.00	0.033490
598.50	0.033100
599.00	0.044010
599.50	0.037540
600.00	0.030390
600.50	0.038470
601.00	0.035360
601.50	0.036020
602.00	0.029230
602.50	0.030130
603.00	0.033950
603.50	0.029220
604.00	0.033530
604.50	0.034040
605.00	0.029770
605.50	0.028020
606.00	0.030100
606.50	0.032390
607.00	0.031880
607.50	0.024500
608.00	0.031080
608.50	0.030100
609.00	0.025560
609.50	0.024480
610.00	0.020210
610.50	0.023430
611.00	0.012720
611.50	0.029790
612.00	0.019040
612.50	0.020410
613.00	0.020690
613.50	0.021090
614.00	0.020970
614.50	0.018300
615.00	0.017660
615.50	0.023580
616.00	0.015820
616.50	0.019090
617.00	0.025240
617.50	0.020620
618.00	0.019900
618.50	0.021700
619.00	0.014540
619.50	0.020910
620.00	0.017860
620.50	0.018920
621.00	0.016790
621.50	0.016930
622.00	0.018990
622.50	0.012560
623.00	0.018630
623.50	0.022560
624.00	0.017940
624.50	0.017860
625.00	0.013440
625.50	0.014300
626.00	0.017430
626.50	0.014870
627.00	0.017820
627.50	0.018890
628.00	0.012040
628.50	0.017010
629.00	0.012700
629.50	0.0030600
630.00	0.012760
630.50	0.014200
631.00	0.014700
631.50	0.012480
632.00	0.013570
632.50	0.015860
633.00	0.015660
633.50	0.015410
634.00	0.012410
634.50	0.018650
635.00	0.0037200
635.50	0.010820
636.00	0.017640
636.50	0.015150
637.00	0.0087100
637.50	0.010590
638.00	0.013410
638.50	0.013720
639.00	0.012190
639.50	0.018780
640.00	0.012960
640.50	0.0089300
641.00	0.0077800
641.50	0.0067300
642.00	0.012390
642.50	0.013420
643.00	0.013490
643.50	0.0022300
644.00	0.0066300
644.50	0.0072700
645.00	0.0071300
645.50	0.0051300
646.00	0.0051600
646.50	0.0027900
647.00	0.011430
647.50	0.0069700
648.00	0.010720
648.50	0.0087900
649.00	0.012180
649.50	0.0063000
650.00	0.0042900
